         24        24         6      1181C   C   D    0.822591500D+05
 E STATE HAS LABEL C   
 VIBRATIONAL LEVELS FOR STATE E IN 1/CM FOR J= 23
      -6705.45626     -5109.79869     -3644.52110     -2316.20466
     -1134.97082      -117.74046
 PROPORTION OF STATE C   
  0.999999E+00 0.999997E+00 0.999997E+00 0.999996E+00 0.999996E+00
  0.999996E+00
 PROPORTION OF STATE D   
  0.102637E-05 0.249490E-05 0.343523E-05 0.399737E-05 0.431546E-05
  0.445800E-05
 TABLE FOR EMISSION PROBABILITIES   E(J= 23,IE) ==>F(J= 23,IF)
         IE==>      0            1            2            3
        1.00  0.000000E+00 0.000000E+00 0.000000E+00 0.000000E+00
        2.00  0.000000E+00 0.000000E+00 0.000000E+00 0.000000E+00
        3.00  0.000000E+00 0.000000E+00 0.000000E+00 0.000000E+00
        4.00  0.000000E+00 0.000000E+00 0.000000E+00 0.000000E+00
        5.00  0.000000E+00 0.000000E+00 0.000000E+00 0.000000E+00
        6.00  0.000000E+00 0.000000E+00 0.000000E+00 0.000000E+00
        7.00  0.000000E+00 0.000000E+00 0.000000E+00 0.000000E+00
        8.00  0.000000E+00 0.000000E+00 0.000000E+00 0.000000E+00
        9.00  0.000000E+00 0.000000E+00 0.000000E+00 0.000000E+00
       10.00  0.000000E+00 0.000000E+00 0.000000E+00 0.000000E+00
       11.00  0.000000E+00 0.000000E+00 0.000000E+00 0.000000E+00
       12.00  0.000000E+00 0.000000E+00 0.000000E+00 0.000000E+00
       13.00  0.000000E+00 0.000000E+00 0.000000E+00 0.000000E+00
       14.00  0.000000E+00 0.000000E+00 0.000000E+00 0.000000E+00
       15.00  0.000000E+00 0.000000E+00 0.000000E+00 0.226898E-37
       16.00  0.000000E+00 0.000000E+00 0.000000E+00 0.103131E-36
       17.00  0.000000E+00 0.000000E+00 0.000000E+00 0.427564E-36
       18.00  0.000000E+00 0.000000E+00 0.230469E-37 0.163396E-35
       19.00  0.000000E+00 0.000000E+00 0.822259E-37 0.580675E-35
       20.00  0.000000E+00 0.119328E-37 0.274848E-36 0.193338E-34
       21.00  0.000000E+00 0.373421E-37 0.866219E-36 0.606953E-34
       22.00  0.000000E+00 0.110786E-36 0.258817E-35 0.180645E-33
       23.00  0.141301E-37 0.313089E-36 0.736627E-35 0.512142E-33
       24.00  0.383278E-37 0.846331E-36 0.200535E-34 0.138882E-32
       25.00  0.998049E-37 0.219624E-35 0.524080E-34 0.361550E-32
       26.00  0.250294E-36 0.548881E-35 0.131905E-33 0.906463E-32
       27.00  0.606240E-36 0.132486E-34 0.320637E-33 0.219495E-31
       28.00  0.142178E-35 0.309637E-34 0.754666E-33 0.514627E-31
       29.00  0.323592E-35 0.702283E-34 0.172373E-32 0.117094E-30
       30.00  0.716183E-35 0.154892E-33 0.382860E-32 0.259082E-30
       31.00  0.154421E-34 0.332815E-33 0.828444E-32 0.558463E-30
       32.00  0.324914E-34 0.697835E-33 0.174928E-31 0.117470E-29
       33.00  0.668132E-34 0.142999E-32 0.360979E-31 0.241486E-29
       34.00  0.134457E-33 0.286771E-32 0.729001E-31 0.485826E-29
       35.00  0.265139E-33 0.563520E-32 0.144258E-30 0.957722E-29
       36.00  0.512902E-33 0.108630E-31 0.280038E-30 0.185210E-28
       37.00  0.974362E-33 0.205643E-31 0.533843E-30 0.351734E-28
       38.00  0.181950E-32 0.382667E-31 0.100035E-29 0.656611E-28
       39.00  0.334285E-32 0.700583E-31 0.184425E-29 0.120596E-27
       40.00  0.604746E-32 0.126295E-30 0.334790E-29 0.218096E-27
       42.00  0.189523E-31 0.393019E-30 0.105643E-28 0.683043E-27
       44.00  0.563112E-31 0.115952E-29 0.316038E-28 0.202809E-26
       46.00  0.159380E-30 0.325865E-29 0.900583E-28 0.573619E-26
       48.00  0.431496E-30 0.875977E-29 0.245467E-27 0.155188E-25
       50.00  0.112150E-29 0.226058E-28 0.642283E-27 0.403055E-25
       52.00  0.280733E-29 0.561837E-28 0.161850E-26 0.100818E-24
       54.00  0.678725E-29 0.134865E-27 0.393903E-26 0.243561E-24
       56.00  0.158891E-28 0.313461E-27 0.928225E-26 0.569742E-24
       58.00  0.360988E-28 0.707045E-27 0.212270E-25 0.129339E-23
       60.00  0.797552E-28 0.155087E-26 0.472040E-25 0.285527E-23
       62.00  0.171670E-27 0.331407E-26 0.102264E-24 0.614082E-23
       64.00  0.360592E-27 0.691082E-26 0.216191E-24 0.128881E-22
       66.00  0.740258E-27 0.140842E-25 0.446662E-24 0.264354E-22
       68.00  0.148726E-26 0.280907E-25 0.903115E-24 0.530659E-22
       70.00  0.292803E-26 0.548993E-25 0.178926E-23 0.104381E-21
       72.00  0.565512E-26 0.105255E-24 0.347751E-23 0.201419E-21
       74.00  0.107262E-25 0.198173E-24 0.663718E-23 0.381688E-21
       76.00  0.199988E-25 0.366769E-24 0.124520E-22 0.710996E-21
       78.00  0.366866E-25 0.667845E-24 0.229839E-22 0.130305E-20
       80.00  0.662691E-25 0.119743E-23 0.417727E-22 0.235154E-20
       82.00  0.117964E-24 0.211567E-23 0.748135E-22 0.418186E-20
       84.00  0.207073E-24 0.368618E-23 0.132127E-21 0.733363E-20
       86.00  0.358695E-24 0.633753E-23 0.230258E-21 0.126908E-19
       88.00  0.613506E-24 0.107584E-22 0.396199E-21 0.216841E-19
       90.00  0.103670E-23 0.180427E-22 0.673500E-21 0.366040E-19
       92.00  0.173163E-23 0.299101E-22 0.113167E-20 0.610775E-19
       94.00  0.286053E-23 0.490356E-22 0.188050E-20 0.100789E-18
       96.00  0.467553E-23 0.795405E-22 0.309176E-20 0.164564E-18
       98.00  0.756479E-23 0.127714E-21 0.503161E-20 0.265969E-18
      100.00  0.121206E-22 0.203066E-21 0.810879E-20 0.425679E-18
      102.00  0.192391E-22 0.319859E-21 0.129456E-19 0.674929E-18
      104.00  0.302644E-22 0.499296E-21 0.204816E-19 0.106052E-17
      106.00  0.471977E-22 0.772657E-21 0.321241E-19 0.165200E-17
      108.00  0.729944E-22 0.118573E-20 0.499650E-19 0.255199E-17
      110.00  0.111988E-21 0.180505E-20 0.770907E-19 0.391070E-17
      112.00  0.170489E-21 0.272661E-20 0.118023E-18 0.594656E-17
      114.00  0.257622E-21 0.408796E-20 0.179340E-18 0.897493E-17
      116.00  0.386492E-21 0.608488E-20 0.270551E-18 0.134482E-16
      118.00  0.575811E-21 0.899430E-20 0.405312E-18 0.200111E-16
      122.00  0.125286E-20 0.192624E-19 0.891611E-18 0.434324E-16
      126.00  0.265833E-20 0.402242E-19 0.191246E-17 0.919207E-16
      130.00  0.550907E-20 0.820324E-19 0.400613E-17 0.190000E-15
      134.00  0.111670E-19 0.163616E-18 0.820726E-17 0.384114E-15
      138.00  0.221694E-19 0.319577E-18 0.164657E-16 0.760502E-15
      142.00  0.431569E-19 0.612006E-18 0.323889E-16 0.147637E-14
      146.00  0.824715E-19 0.115039E-17 0.625349E-16 0.281337E-14
      150.00  0.154866E-18 0.212462E-17 0.118632E-15 0.526782E-14
      154.00  0.286028E-18 0.385894E-17 0.221328E-15 0.970096E-14
      158.00  0.520039E-18 0.689886E-17 0.406445E-15 0.175853E-13
      162.00  0.931498E-18 0.121493E-16 0.735263E-15 0.314036E-13
      166.00  0.164500E-17 0.210916E-16 0.131122E-14 0.552870E-13
      170.00  0.286602E-17 0.361198E-16 0.230676E-14 0.960232E-13
      174.00  0.492950E-17 0.610565E-16 0.400584E-14 0.164632E-12
      178.00  0.837514E-17 0.101936E-15 0.687083E-14 0.278803E-12
      182.00  0.140633E-16 0.168179E-15 0.116464E-13 0.466619E-12
      186.00  0.233515E-16 0.274340E-15 0.195194E-13 0.772214E-12
      190.00  0.383607E-16 0.442680E-15 0.323627E-13 0.126425E-11
      194.00  0.623732E-16 0.706920E-15 0.531039E-13 0.204856E-11
      198.00  0.100423E-15 0.111767E-14 0.862771E-13 0.328675E-11
      202.00  0.160166E-15 0.175021E-14 0.138844E-12 0.522350E-11
      206.00  0.253146E-15 0.271561E-14 0.221403E-12 0.822615E-11
      210.00  0.396630E-15 0.417631E-14 0.349960E-12 0.128418E-10
      214.00  0.616258E-15 0.636813E-14 0.548505E-12 0.198790E-10
      218.00  0.949814E-15 0.963078E-14 0.852721E-12 0.305239E-10
      222.00  0.145260E-14 0.144501E-13 0.131531E-11 0.465045E-10
      226.00  0.220498E-14 0.215161E-13 0.201358E-11 0.703204E-10
      230.00  0.332305E-14 0.318020E-13 0.306019E-11 0.105564E-09
      234.00  0.497338E-14 0.466715E-13 0.461824E-11 0.157367E-09
      238.00  0.739356E-14 0.680240E-13 0.692245E-11 0.233012E-09
      242.00  0.109205E-13 0.984876E-13 0.103086E-10 0.342773E-09
      246.00  0.160293E-13 0.141679E-12 0.152541E-10 0.501067E-09
      250.00  0.233863E-13 0.202543E-12 0.224346E-10 0.728009E-09
      254.00  0.339207E-13 0.287811E-12 0.328001E-10 0.105151E-08
      258.00  0.489225E-13 0.406587E-12 0.476807E-10 0.151012E-08
      262.00  0.701734E-13 0.571126E-12 0.689286E-10 0.215678E-08
      266.00  0.100123E-12 0.797844E-12 0.991109E-10 0.306390E-08
      270.00  0.142121E-12 0.110861E-11 0.141769E-09 0.433000E-08
      274.00  0.200734E-12 0.153245E-11 0.201767E-09 0.608860E-08
      282.00  0.394746E-12 0.288459E-11 0.402780E-09 0.118654E-07
      290.00  0.762277E-12 0.532703E-11 0.789359E-09 0.227017E-07
      298.00  0.144697E-11 0.966100E-11 0.152028E-08 0.426874E-07
      306.00  0.270256E-11 0.172224E-10 0.288028E-08 0.789632E-07
      314.00  0.497107E-11 0.302044E-10 0.537281E-08 0.143821E-06
      322.00  0.901251E-11 0.521539E-10 0.987615E-08 0.258140E-06
      330.00  0.161175E-10 0.887271E-10 0.179032E-07 0.456937E-06
      338.00  0.284521E-10 0.148820E-09 0.320291E-07 0.798248E-06
      346.00  0.496121E-10 0.246242E-09 0.565873E-07 0.137717E-05
      354.00  0.855042E-10 0.402162E-09 0.987937E-07 0.234789E-05
      362.00  0.145738E-09 0.648636E-09 0.170543E-06 0.395790E-05
      370.00  0.245800E-09 0.103363E-08 0.291258E-06 0.660070E-05
      378.00  0.410435E-09 0.162812E-08 0.492365E-06 0.108963E-04
      386.00  0.678848E-09 0.253587E-08 0.824289E-06 0.178134E-04
      394.00  0.111267E-08 0.390702E-08 0.136728E-05 0.288529E-04
      402.00  0.180809E-08 0.595638E-08 0.224808E-05 0.463237E-04
      410.00  0.291417E-08 0.898798E-08 0.366549E-05 0.737510E-04
      418.00  0.466045E-08 0.134276E-07 0.592916E-05 0.116482E-03
      426.00  0.739819E-08 0.198651E-07 0.951839E-05 0.182576E-03
      434.00  0.116618E-07 0.291086E-07 0.151707E-04 0.284106E-03
      442.00  0.182602E-07 0.422528E-07 0.240144E-04 0.439057E-03
      450.00  0.284111E-07 0.607641E-07 0.377671E-04 0.674082E-03
      458.00  0.439399E-07 0.865828E-07 0.590304E-04 0.102848E-02
      466.00  0.675708E-07 0.122244E-06 0.917274E-04 0.155997E-02
      474.00  0.103353E-06 0.171016E-06 0.141750E-03 0.235290E-02
      482.00  0.157285E-06 0.237045E-06 0.217911E-03 0.353014E-02
      490.00  0.238221E-06 0.325509E-06 0.333352E-03 0.527001E-02
      498.00  0.359195E-06 0.442743E-06 0.507599E-03 0.783047E-02
      506.00  0.539344E-06 0.596324E-06 0.769599E-03 0.115837E-01
      514.00  0.806705E-06 0.795060E-06 0.116215E-02 0.170656E-01
      522.00  0.120228E-05 0.104880E-05 0.174841E-02 0.250456E-01
      530.00  0.178595E-05 0.136802E-05 0.262145E-02 0.366278E-01
      538.00  0.264507E-05 0.176295E-05 0.391820E-02 0.533934E-01
      546.00  0.390700E-05 0.224219E-05 0.584005E-02 0.776061E-01
      554.00  0.575741E-05 0.281047E-05 0.868298E-02 0.112505E+00
      562.00  0.846703E-05 0.346550E-05 0.128822E-01 0.162725E+00
      570.00  0.124310E-04 0.419336E-05 0.190779E-01 0.234909E+00
      578.00  0.182270E-04 0.496269E-05 0.282131E-01 0.338579E+00
      586.00  0.267008E-04 0.571744E-05 0.416798E-01 0.487424E+00
      596.00  0.430037E-04 0.650226E-05 0.678295E-01 0.767836E+00
      606.00  0.692698E-04 0.686726E-05 0.110381E+00 0.120920E+01
      616.00  0.111707E-03 0.647602E-05 0.179802E+00 0.190559E+01
      626.00  0.180559E-03 0.501061E-05 0.293513E+00 0.300864E+01
      636.00  0.292924E-03 0.249435E-05 0.480824E+00 0.476542E+01
      646.00  0.477737E-03 0.152221E-06 0.791725E+00 0.758444E+01
      656.00  0.784826E-03 0.252385E-05 0.131295E+01 0.121530E+02
      666.00  0.130187E-02 0.224794E-04 0.219818E+01 0.196532E+02
      676.00  0.218733E-02 0.930434E-04 0.372709E+01 0.321745E+02
      686.00  0.373748E-02 0.295624E-03 0.642588E+01 0.535400E+02
      696.00  0.653059E-02 0.829521E-03 0.113277E+02 0.910574E+02
      706.00  0.117599E-01 0.219191E-02 0.205764E+02 0.159509E+03
      716.00  0.220764E-01 0.567995E-02 0.389593E+02 0.291123E+03
      726.00  0.439981E-01 0.149508E-01 0.783029E+02 0.563755E+03
      736.00  0.960756E-01 0.417005E-01 0.172409E+03 0.119538E+04
      746.00  0.244647E+00 0.132132E+00 0.442627E+03 0.295391E+04
      756.00  0.847669E+00 0.557822E+00 0.154604E+04 0.992563E+04
      766.00  0.750459E+01 0.591422E+01 0.137963E+05 0.851605E+05
      776.00  0.291966E+02 0.271602E+02 0.540954E+05 0.320861E+06
      786.00  0.278655E+01 0.302258E+01 0.520278E+04 0.296351E+05
      796.00  0.122123E+01 0.152845E+01 0.229751E+04 0.125592E+05
      806.00  0.790032E+00 0.113052E+01 0.149743E+04 0.785039E+04
      816.00  0.612671E+00 0.994421E+00 0.116983E+04 0.587762E+04
      826.00  0.527469E+00 0.964235E+00 0.101448E+04 0.488121E+04
      836.00  0.485860E+00 0.994068E+00 0.941150E+03 0.433325E+04
      846.00  0.469051E+00 0.106808E+01 0.915008E+03 0.402803E+04
      856.00  0.468619E+00 0.118166E+01 0.920532E+03 0.387118E+04
      866.00  0.480498E+00 0.133556E+01 0.950344E+03 0.381441E+04
      876.00  0.502723E+00 0.153392E+01 0.100103E+04 0.383107E+04
      886.00  0.534476E+00 0.178344E+01 0.107135E+04 0.390567E+04
      896.00  0.575642E+00 0.209330E+01 0.116146E+04 0.402895E+04
      906.00  0.626587E+00 0.247531E+01 0.127245E+04 0.419534E+04
      916.00  0.688056E+00 0.294417E+01 0.140621E+04 0.440149E+04
      926.00  0.761119E+00 0.351808E+01 0.156533E+04 0.464552E+04
      936.00  0.847156E+00 0.421928E+01 0.175311E+04 0.492648E+04
      946.00  0.947867E+00 0.507491E+01 0.197354E+04 0.524399E+04
      956.00  0.106529E+01 0.611801E+01 0.223143E+04 0.559804E+04
      966.00  0.120184E+01 0.738869E+01 0.253247E+04 0.598880E+04
      976.00  0.136034E+01 0.893561E+01 0.288332E+04 0.641646E+04
      986.00  0.154410E+01 0.108177E+02 0.329182E+04 0.688111E+04
      996.00  0.175698E+01 0.131064E+02 0.376710E+04 0.738257E+04
     1006.00  0.200345E+01 0.158881E+02 0.431980E+04 0.792031E+04
     1016.00  0.228868E+01 0.192670E+02 0.496233E+04 0.849328E+04
     1026.00  0.261871E+01 0.233693E+02 0.570912E+04 0.909978E+04
     1036.00  0.300048E+01 0.283472E+02 0.657696E+04 0.973728E+04
     1046.00  0.344208E+01 0.343845E+02 0.758536E+04 0.104023E+05
     1056.00  0.395285E+01 0.417026E+02 0.875702E+04 0.110901E+05
     1066.00  0.454361E+01 0.505688E+02 0.101183E+05 0.117947E+05
     1076.00  0.522688E+01 0.613049E+02 0.116999E+05 0.125084E+05
     1086.00  0.601714E+01 0.742985E+02 0.135374E+05 0.132219E+05
     1096.00  0.693118E+01 0.900164E+02 0.156721E+05 0.139237E+05
     1106.00  0.798839E+01 0.109020E+03 0.181522E+05 0.146001E+05
     1116.00  0.921128E+01 0.131986E+03 0.210335E+05 0.152351E+05
     1126.00  0.106259E+02 0.159728E+03 0.243810E+05 0.158102E+05
     1136.00  0.122623E+02 0.193223E+03 0.282703E+05 0.163043E+05
     1146.00  0.141556E+02 0.233648E+03 0.327893E+05 0.166938E+05
     1156.00  0.163462E+02 0.282417E+03 0.380400E+05 0.169525E+05
     1166.00  0.188811E+02 0.341232E+03 0.441413E+05 0.170525E+05
     1176.00  0.218147E+02 0.412137E+03 0.512317E+05 0.169644E+05
     1186.00  0.252101E+02 0.497591E+03 0.594722E+05 0.166586E+05
     1196.00  0.291408E+02 0.600551E+03 0.690505E+05 0.161068E+05
     1206.00  0.336920E+02 0.724575E+03 0.801853E+05 0.152843E+05
     1216.00  0.389627E+02 0.873941E+03 0.931320E+05 0.141727E+05
     1226.00  0.450682E+02 0.105380E+04 0.108188E+06 0.127650E+05
     1236.00  0.521426E+02 0.127036E+04 0.125702E+06 0.110702E+05
     1246.00  0.603422E+02 0.153107E+04 0.146079E+06 0.912223E+04
     1256.00  0.698490E+02 0.184495E+04 0.169795E+06 0.698909E+04
     1266.00  0.808758E+02 0.222285E+04 0.197406E+06 0.478694E+04
     1276.00  0.936709E+02 0.267784E+04 0.229565E+06 0.269740E+04
     1286.00  0.108525E+03 0.322576E+04 0.267036E+06 0.990495E+03
     1296.00  0.125778E+03 0.388570E+04 0.310718E+06 0.543780E+02
     1306.00  0.145830E+03 0.468078E+04 0.361668E+06 0.433846E+03
     1316.00  0.169148E+03 0.563898E+04 0.421130E+06 0.288008E+04
     1326.00  0.196283E+03 0.679425E+04 0.490571E+06 0.841487E+04
     1336.00  0.227885E+03 0.818776E+04 0.571723E+06 0.184133E+05
     1346.00  0.264719E+03 0.986958E+04 0.666637E+06 0.347104E+05
     1356.00  0.307690E+03 0.119006E+05 0.777742E+06 0.597383E+05
     1366.00  0.357869E+03 0.143553E+05 0.907924E+06 0.967035E+05
     1376.00  0.416530E+03 0.173242E+05 0.106062E+07 0.149815E+06
     1386.00  0.485185E+03 0.209187E+05 0.123992E+07 0.224578E+06
     1396.00  0.565642E+03 0.252748E+05 0.145073E+07 0.328177E+06
     1406.00  0.660059E+03 0.305603E+05 0.169891E+07 0.469967E+06
     1416.00  0.771028E+03 0.369816E+05 0.199154E+07 0.662117E+06
     1426.00  0.901664E+03 0.447940E+05 0.233712E+07 0.920441E+06
     1436.00  0.105573E+04 0.543138E+05 0.274596E+07 0.126549E+07
     1446.00  0.123779E+04 0.659345E+05 0.323058E+07 0.172400E+07
     1456.00  0.145340E+04 0.801473E+05 0.380624E+07 0.233074E+07
     1466.00  0.170932E+04 0.975675E+05 0.449163E+07 0.313104E+07
     1476.00  0.201389E+04 0.118969E+06 0.530974E+07 0.418408E+07
     1486.00  0.237736E+04 0.145331E+06 0.628898E+07 0.556734E+07
     1496.00  0.281248E+04 0.177896E+06 0.746466E+07 0.738256E+07
     1506.00  0.333513E+04 0.218251E+06 0.888095E+07 0.976383E+07
     1516.00  0.396526E+04 0.268436E+06 0.105934E+08 0.128886E+08
     1526.00  0.472812E+04 0.331089E+06 0.126724E+08 0.169931E+08
     1536.00  0.565588E+04 0.409646E+06 0.152080E+08 0.223930E+08
     1546.00  0.678990E+04 0.508623E+06 0.183157E+08 0.295139E+08
     1556.00  0.818386E+04 0.633999E+06 0.221464E+08 0.389330E+08
     1566.00  0.990813E+04 0.793778E+06 0.268975E+08 0.514404E+08
     1576.00  0.120561E+05 0.998783E+06 0.328318E+08 0.681281E+08
     1586.00  0.147531E+05 0.126384E+07 0.403027E+08 0.905218E+08
     1596.00  0.181700E+05 0.160954E+07 0.497925E+08 0.120781E+09
     1606.00  0.225437E+05 0.206490E+07 0.619705E+08 0.162007E+09
     1616.00  0.282079E+05 0.267160E+07 0.777816E+08 0.218728E+09
     1626.00  0.356433E+05 0.349066E+07 0.985885E+08 0.297682E+09
     1636.00  0.455587E+05 0.461355E+07 0.126403E+09 0.409129E+09
     1646.00  0.590282E+05 0.618111E+07 0.164279E+09 0.569093E+09
     1651.10  0.677733E+05 0.721918E+07 0.188912E+09 0.677114E+09
     1651.60  0.687165E+05 0.733196E+07 0.191571E+09 0.688933E+09
     1652.10  0.696760E+05 0.744684E+07 0.194276E+09 0.700988E+09
     1652.60  0.706521E+05 0.756387E+07 0.197028E+09 0.713283E+09
     1653.11  0.716452E+05 0.768309E+07 0.199828E+09 0.725826E+09
     1653.61  0.726557E+05 0.780455E+07 0.202677E+09 0.738620E+09
     1654.11  0.736838E+05 0.792830E+07 0.205577E+09 0.751673E+09
     1654.61  0.747301E+05 0.805440E+07 0.208528E+09 0.764990E+09
     1655.11  0.757948E+05 0.818290E+07 0.211532E+09 0.778577E+09
     1655.61  0.768784E+05 0.831386E+07 0.214589E+09 0.792442E+09
     1656.00  0.777320E+05 0.841713E+07 0.216997E+09 0.803389E+09
     1656.11  0.779813E+05 0.844732E+07 0.217701E+09 0.806590E+09
     1656.61  0.791040E+05 0.858335E+07 0.220869E+09 0.821028E+09
     1657.12  0.802468E+05 0.872200E+07 0.224094E+09 0.835764E+09
     1657.62  0.814102E+05 0.886334E+07 0.227378E+09 0.850804E+09
     1658.12  0.825947E+05 0.900744E+07 0.230722E+09 0.866157E+09
     1658.62  0.838008E+05 0.915435E+07 0.234127E+09 0.881828E+09
     1659.12  0.850289E+05 0.930413E+07 0.237594E+09 0.897827E+09
     1659.62  0.862795E+05 0.945687E+07 0.241126E+09 0.914160E+09
     1660.12  0.875531E+05 0.961262E+07 0.244723E+09 0.930838E+09
     1660.62  0.888503E+05 0.977147E+07 0.248387E+09 0.947867E+09
     1661.13  0.901716E+05 0.993348E+07 0.252119E+09 0.965257E+09
     1661.63  0.915176E+05 0.100987E+08 0.255922E+09 0.983016E+09
     1662.13  0.928888E+05 0.102673E+08 0.259796E+09 0.100115E+10
     1662.63  0.942858E+05 0.104393E+08 0.263744E+09 0.101968E+10
     1663.13  0.957092E+05 0.106147E+08 0.267767E+09 0.103861E+10
     1663.63  0.971597E+05 0.107937E+08 0.271866E+09 0.105794E+10
     1664.13  0.986378E+05 0.109764E+08 0.276045E+09 0.107769E+10
     1664.63  0.100144E+06 0.111628E+08 0.280304E+09 0.109787E+10
     1665.14  0.101680E+06 0.113530E+08 0.284645E+09 0.111849E+10
     1665.64  0.103245E+06 0.115472E+08 0.289071E+09 0.113956E+10
     1666.00  0.104399E+06 0.116906E+08 0.292336E+09 0.115514E+10
     1666.14  0.104840E+06 0.117454E+08 0.293583E+09 0.116110E+10
     1666.64  0.106467E+06 0.119477E+08 0.298184E+09 0.118311E+10
     1667.14  0.108126E+06 0.121543E+08 0.302876E+09 0.120561E+10
     1667.64  0.109817E+06 0.123652E+08 0.307661E+09 0.122861E+10
     1668.14  0.111542E+06 0.125806E+08 0.312541E+09 0.125212E+10
     1668.64  0.113301E+06 0.128005E+08 0.317518E+09 0.127616E+10
     1669.15  0.115095E+06 0.130252E+08 0.322596E+09 0.130074E+10
     1669.65  0.116925E+06 0.132546E+08 0.327776E+09 0.132588E+10
     1670.15  0.118792E+06 0.134889E+08 0.333061E+09 0.135158E+10
     1670.65  0.120697E+06 0.137284E+08 0.338454E+09 0.137788E+10
     1671.15  0.122641E+06 0.139730E+08 0.343958E+09 0.140477E+10
     1671.65  0.124625E+06 0.142229E+08 0.349574E+09 0.143228E+10
     1672.15  0.126649E+06 0.144783E+08 0.355307E+09 0.146043E+10
     1672.65  0.128715E+06 0.147393E+08 0.361159E+09 0.148923E+10
     1673.16  0.130825E+06 0.150061E+08 0.367134E+09 0.151870E+10
     1673.66  0.132978E+06 0.152788E+08 0.373234E+09 0.154886E+10
     1674.16  0.135176E+06 0.155576E+08 0.379462E+09 0.157973E+10
     1674.66  0.137421E+06 0.158427E+08 0.385823E+09 0.161132E+10
     1675.16  0.139713E+06 0.161341E+08 0.392319E+09 0.164366E+10
     1675.66  0.142055E+06 0.164322E+08 0.398954E+09 0.167678E+10
     1676.00  0.143664E+06 0.166373E+08 0.403517E+09 0.169959E+10
     1676.16  0.144446E+06 0.167370E+08 0.405733E+09 0.171068E+10
     1676.66  0.146889E+06 0.170488E+08 0.412658E+09 0.174540E+10
     1677.17  0.149385E+06 0.173677E+08 0.419734E+09 0.178096E+10
     1677.67  0.151935E+06 0.176940E+08 0.426964E+09 0.181737E+10
     1678.17  0.154541E+06 0.180279E+08 0.434354E+09 0.185468E+10
     1678.67  0.157204E+06 0.183695E+08 0.441907E+09 0.189289E+10
     1679.17  0.159926E+06 0.187191E+08 0.449627E+09 0.193204E+10
     1679.67  0.162708E+06 0.190770E+08 0.457521E+09 0.197216E+10
     1680.17  0.165553E+06 0.194433E+08 0.465591E+09 0.201328E+10
     1680.67  0.168462E+06 0.198183E+08 0.473844E+09 0.205542E+10
     1681.18  0.171437E+06 0.202023E+08 0.482285E+09 0.209862E+10
     1681.68  0.174479E+06 0.205955E+08 0.490918E+09 0.214290E+10
     1682.18  0.177590E+06 0.209983E+08 0.499750E+09 0.218830E+10
     1682.68  0.180774E+06 0.214107E+08 0.508785E+09 0.223485E+10
     1683.18  0.184030E+06 0.218333E+08 0.518031E+09 0.228260E+10
     1683.68  0.187363E+06 0.222662E+08 0.527492E+09 0.233157E+10
     1684.18  0.190773E+06 0.227098E+08 0.537176E+09 0.238180E+10
     1684.68  0.194264E+06 0.231644E+08 0.547088E+09 0.243334E+10
     1685.19  0.197837E+06 0.236304E+08 0.557236E+09 0.248621E+10
     1685.69  0.201495E+06 0.241080E+08 0.567627E+09 0.254048E+10
     1686.00  0.203827E+06 0.244128E+08 0.574253E+09 0.257514E+10
     1686.19  0.205241E+06 0.245977E+08 0.578267E+09 0.259617E+10
     1686.69  0.209076E+06 0.250997E+08 0.589165E+09 0.265333E+10
     1687.19  0.213005E+06 0.256146E+08 0.600328E+09 0.271202E+10
     1687.69  0.217030E+06 0.261427E+08 0.611764E+09 0.277228E+10
     1688.19  0.221153E+06 0.266844E+08 0.623482E+09 0.283416E+10
     1688.69  0.225377E+06 0.272402E+08 0.635490E+09 0.289771E+10
     1689.20  0.229707E+06 0.278104E+08 0.647797E+09 0.296299E+10
     1689.70  0.234145E+06 0.283956E+08 0.660412E+09 0.303005E+10
     1690.20  0.238694E+06 0.289963E+08 0.673346E+09 0.309896E+10
     1690.70  0.243358E+06 0.296129E+08 0.686608E+09 0.316977E+10
     1691.20  0.248140E+06 0.302460E+08 0.700209E+09 0.324255E+10
     1691.70  0.253045E+06 0.308961E+08 0.714160E+09 0.331736E+10
     1692.20  0.258077E+06 0.315637E+08 0.728471E+09 0.339428E+10
     1692.70  0.263238E+06 0.322495E+08 0.743155E+09 0.347337E+10
     1693.21  0.268535E+06 0.329541E+08 0.758223E+09 0.355471E+10
     1693.71  0.273970E+06 0.336780E+08 0.773689E+09 0.363838E+10
     1694.21  0.279549E+06 0.344220E+08 0.789565E+09 0.372445E+10
     1694.71  0.285277E+06 0.351868E+08 0.805865E+09 0.381302E+10
     1695.21  0.291157E+06 0.359729E+08 0.822604E+09 0.390416E+10
     1695.71  0.297197E+06 0.367813E+08 0.839795E+09 0.399798E+10
     1696.00  0.300746E+06 0.372569E+08 0.849900E+09 0.405321E+10
     1696.21  0.303400E+06 0.376126E+08 0.857454E+09 0.409455E+10
     1696.71  0.309772E+06 0.384677E+08 0.875598E+09 0.419399E+10
     1697.22  0.316320E+06 0.393473E+08 0.894243E+09 0.429640E+10
     1697.72  0.323049E+06 0.402525E+08 0.913405E+09 0.440188E+10
     1698.22  0.329965E+06 0.411840E+08 0.933104E+09 0.451054E+10
     1698.72  0.337076E+06 0.421428E+08 0.953358E+09 0.462251E+10
     1699.22  0.344387E+06 0.431299E+08 0.974186E+09 0.473789E+10
     1699.72  0.351907E+06 0.441463E+08 0.995610E+09 0.485683E+10
     1700.22  0.359642E+06 0.451932E+08 0.101765E+10 0.497945E+10
     1700.72  0.367600E+06 0.462715E+08 0.104033E+10 0.510590E+10
     1701.23  0.375789E+06 0.473826E+08 0.106367E+10 0.523630E+10
     1701.73  0.384218E+06 0.485275E+08 0.108769E+10 0.537083E+10
     1702.23  0.392895E+06 0.497077E+08 0.111242E+10 0.550962E+10
     1702.73  0.401830E+06 0.509243E+08 0.113790E+10 0.565286E+10
     1703.23  0.411031E+06 0.521789E+08 0.116413E+10 0.580071E+10
     1703.73  0.420510E+06 0.534728E+08 0.119116E+10 0.595334E+10
     1704.23  0.430277E+06 0.548076E+08 0.121901E+10 0.611096E+10
     1704.73  0.440341E+06 0.561848E+08 0.124772E+10 0.627375E+10
     1705.24  0.450716E+06 0.576061E+08 0.127731E+10 0.644193E+10
     1705.74  0.461411E+06 0.590733E+08 0.130782E+10 0.661570E+10
     1706.00  0.467165E+06 0.598633E+08 0.132424E+10 0.670934E+10
     1706.24  0.472441E+06 0.605882E+08 0.133929E+10 0.679530E+10
     1706.74  0.483818E+06 0.621526E+08 0.137175E+10 0.698096E+10
     1707.24  0.495555E+06 0.637685E+08 0.140524E+10 0.717292E+10
     1707.74  0.507667E+06 0.654381E+08 0.143981E+10 0.737146E+10
     1708.24  0.520169E+06 0.671635E+08 0.147549E+10 0.757683E+10
     1708.74  0.533076E+06 0.689470E+08 0.151234E+10 0.778933E+10
     1709.25  0.546404E+06 0.707909E+08 0.155039E+10 0.800925E+10
     1709.75  0.560171E+06 0.726979E+08 0.158969E+10 0.823691E+10
     1710.25  0.574393E+06 0.746704E+08 0.163030E+10 0.847263E+10
     1710.75  0.589091E+06 0.767114E+08 0.167228E+10 0.871676E+10
     1711.25  0.604284E+06 0.788235E+08 0.171567E+10 0.896966E+10
     1711.75  0.619991E+06 0.810100E+08 0.176053E+10 0.923172E+10
     1712.25  0.636235E+06 0.832739E+08 0.180694E+10 0.950332E+10
     1712.75  0.653038E+06 0.856186E+08 0.185494E+10 0.978489E+10
     1713.26  0.670424E+06 0.880475E+08 0.190462E+10 0.100769E+11
     1713.76  0.688417E+06 0.905645E+08 0.195604E+10 0.103797E+11
     1714.26  0.707044E+06 0.931732E+08 0.200927E+10 0.106939E+11
     1714.76  0.726331E+06 0.958778E+08 0.206440E+10 0.110200E+11
     1715.26  0.746308E+06 0.986825E+08 0.212150E+10 0.113585E+11
     1715.76  0.767004E+06 0.101592E+09 0.218067E+10 0.117099E+11
     1716.00  0.777106E+06 0.103013E+09 0.220955E+10 0.118817E+11
     1716.26  0.788450E+06 0.104610E+09 0.224198E+10 0.120749E+11
     1716.76  0.810680E+06 0.107743E+09 0.230555E+10 0.124540E+11
     1717.27  0.833728E+06 0.110995E+09 0.237146E+10 0.128480E+11
     1717.77  0.857631E+06 0.114371E+09 0.243982E+10 0.132575E+11
     1718.27  0.882426E+06 0.117879E+09 0.251075E+10 0.136832E+11
     1718.77  0.908153E+06 0.121522E+09 0.258434E+10 0.141259E+11
     1719.27  0.934855E+06 0.125308E+09 0.266074E+10 0.145864E+11
     1719.77  0.962575E+06 0.129244E+09 0.274005E+10 0.150655E+11
     1720.27  0.991359E+06 0.133336E+09 0.282242E+10 0.155641E+11
     1720.77  0.102125E+07 0.137591E+09 0.290798E+10 0.160832E+11
     1721.28  0.105231E+07 0.142017E+09 0.299688E+10 0.166236E+11
     1721.78  0.108459E+07 0.146622E+09 0.308927E+10 0.171865E+11
     1722.28  0.111813E+07 0.151415E+09 0.318531E+10 0.177729E+11
     1722.78  0.115301E+07 0.156404E+09 0.328517E+10 0.183839E+11
     1723.28  0.118927E+07 0.161599E+09 0.338901E+10 0.190207E+11
     1723.78  0.122699E+07 0.167009E+09 0.349703E+10 0.196845E+11
     1724.28  0.126623E+07 0.172643E+09 0.360942E+10 0.203766E+11
     1724.78  0.130705E+07 0.178514E+09 0.372636E+10 0.210984E+11
     1725.29  0.134954E+07 0.184631E+09 0.384807E+10 0.218513E+11
     1725.79  0.139376E+07 0.191007E+09 0.397477E+10 0.226367E+11
     1726.00  0.141312E+07 0.193800E+09 0.403025E+10 0.229812E+11
     1726.29  0.143979E+07 0.197652E+09 0.410668E+10 0.234563E+11
     1726.79  0.148772E+07 0.204580E+09 0.424403E+10 0.243115E+11
     1727.29  0.153762E+07 0.211803E+09 0.438706E+10 0.252042E+11
     1727.79  0.158958E+07 0.219336E+09 0.453602E+10 0.261359E+11
     1728.29  0.164370E+07 0.227190E+09 0.469116E+10 0.271086E+11
     1728.79  0.170006E+07 0.235382E+09 0.485276E+10 0.281240E+11
     1729.30  0.175876E+07 0.243925E+09 0.502108E+10 0.291841E+11
     1729.80  0.181988E+07 0.252835E+09 0.519639E+10 0.302909E+11
     1730.30  0.188354E+07 0.262126E+09 0.537898E+10 0.314463E+11
     1730.80  0.194983E+07 0.271815E+09 0.556913E+10 0.326525E+11
     1731.30  0.201884E+07 0.281917E+09 0.576713E+10 0.339114E+11
     1731.80  0.209067E+07 0.292447E+09 0.597326E+10 0.352253E+11
     1732.30  0.216543E+07 0.303423E+09 0.618779E+10 0.365961E+11
     1732.80  0.224320E+07 0.314858E+09 0.641102E+10 0.380260E+11
     1733.31  0.232408E+07 0.326769E+09 0.664319E+10 0.395171E+11
     1733.81  0.240815E+07 0.339170E+09 0.688457E+10 0.410713E+11
     1734.31  0.249550E+07 0.352074E+09 0.713538E+10 0.426905E+11
     1734.81  0.258620E+07 0.365494E+09 0.739584E+10 0.443765E+11
     1735.31  0.268030E+07 0.379442E+09 0.766612E+10 0.461309E+11
     1735.81  0.277785E+07 0.393927E+09 0.794637E+10 0.479551E+11
     1736.00  0.281538E+07 0.399506E+09 0.805420E+10 0.486584E+11
     1736.31  0.287890E+07 0.408955E+09 0.823668E+10 0.498503E+11
     1736.81  0.298344E+07 0.424532E+09 0.853710E+10 0.518172E+11
     1737.32  0.309147E+07 0.440659E+09 0.884760E+10 0.538563E+11
     1737.82  0.320296E+07 0.457333E+09 0.916809E+10 0.559675E+11
     1738.32  0.331784E+07 0.474549E+09 0.949838E+10 0.581503E+11
     1738.82  0.343601E+07 0.492293E+09 0.983818E+10 0.604035E+11
     1739.32  0.355732E+07 0.510549E+09 0.101871E+11 0.627251E+11
     1739.82  0.368160E+07 0.529292E+09 0.105446E+11 0.651126E+11
     1740.32  0.380861E+07 0.548492E+09 0.109101E+11 0.675623E+11
     1740.82  0.393807E+07 0.568108E+09 0.112827E+11 0.700695E+11
     1741.33  0.406963E+07 0.588095E+09 0.116614E+11 0.726286E+11
     1741.83  0.420288E+07 0.608393E+09 0.120451E+11 0.752326E+11
     1742.33  0.433735E+07 0.628937E+09 0.124324E+11 0.778734E+11
     1742.83  0.447250E+07 0.649649E+09 0.128217E+11 0.805416E+11
     1743.33  0.460772E+07 0.670440E+09 0.132114E+11 0.832262E+11
     1743.83  0.474233E+07 0.691212E+09 0.135995E+11 0.859150E+11
     1744.33  0.487559E+07 0.711855E+09 0.139838E+11 0.885944E+11
     1744.83  0.500668E+07 0.732251E+09 0.143620E+11 0.912495E+11
     1745.34  0.513474E+07 0.752272E+09 0.147316E+11 0.938642E+11
     1745.84  0.525886E+07 0.771781E+09 0.150900E+11 0.964213E+11
     1746.00  0.529825E+07 0.777997E+09 0.152038E+11 0.972382E+11
     1746.34  0.537809E+07 0.790636E+09 0.154345E+11 0.989028E+11
     1746.84  0.549146E+07 0.808692E+09 0.157623E+11 0.101290E+12
     1747.34  0.559801E+07 0.825801E+09 0.160706E+11 0.103564E+12
     1747.84  0.569677E+07 0.841816E+09 0.163567E+11 0.105707E+12
     1748.34  0.578683E+07 0.856596E+09 0.166178E+11 0.107699E+12
     1748.84  0.586732E+07 0.870005E+09 0.168516E+11 0.109523E+12
     1749.35  0.593745E+07 0.881920E+09 0.170556E+11 0.111163E+12
     1749.85  0.599654E+07 0.892230E+09 0.172280E+11 0.112604E+12
     1750.35  0.604401E+07 0.900841E+09 0.173671E+11 0.113833E+12
     1750.85  0.607941E+07 0.907679E+09 0.174715E+11 0.114841E+12
     1751.35  0.610244E+07 0.912688E+09 0.175404E+11 0.115620E+12
     1751.85  0.611297E+07 0.915838E+09 0.175734E+11 0.116164E+12
     1752.35  0.611098E+07 0.917119E+09 0.175704E+11 0.116471E+12
     1752.85  0.609665E+07 0.916545E+09 0.175319E+11 0.116544E+12
     1753.36  0.607028E+07 0.914154E+09 0.174587E+11 0.116384E+12
     1753.86  0.603230E+07 0.910001E+09 0.173522E+11 0.115999E+12
     1754.36  0.598328E+07 0.904163E+09 0.172138E+11 0.115398E+12
     1754.86  0.592389E+07 0.896732E+09 0.170456E+11 0.114591E+12
     1755.36  0.585487E+07 0.887815E+09 0.168496E+11 0.113592E+12
     1755.86  0.577707E+07 0.877528E+09 0.166283E+11 0.112414E+12
     1756.00  0.575420E+07 0.874470E+09 0.165632E+11 0.112061E+12
     1756.36  0.569133E+07 0.865997E+09 0.163840E+11 0.111074E+12
     1756.86  0.559856E+07 0.853352E+09 0.161195E+11 0.109587E+12
     1757.37  0.549966E+07 0.839725E+09 0.158372E+11 0.107969E+12
     1757.87  0.539552E+07 0.825248E+09 0.155397E+11 0.106238E+12
     1758.37  0.528703E+07 0.810051E+09 0.152296E+11 0.104409E+12
     1758.87  0.517501E+07 0.794259E+09 0.149092E+11 0.102498E+12
     1759.37  0.506027E+07 0.777991E+09 0.145809E+11 0.100521E+12
     1759.87  0.494355E+07 0.761359E+09 0.142468E+11 0.984922E+11
     1760.37  0.482554E+07 0.744469E+09 0.139088E+11 0.964242E+11
     1760.87  0.470686E+07 0.727416E+09 0.135689E+11 0.943297E+11
     1761.38  0.458808E+07 0.710286E+09 0.132285E+11 0.922200E+11
     1761.88  0.446972E+07 0.693159E+09 0.128892E+11 0.901051E+11
     1762.38  0.435221E+07 0.676104E+09 0.125523E+11 0.879942E+11
     1762.88  0.423595E+07 0.659182E+09 0.122189E+11 0.858952E+11
     1763.38  0.412127E+07 0.642446E+09 0.118899E+11 0.838151E+11
     1763.88  0.400846E+07 0.625943E+09 0.115663E+11 0.817601E+11
     1764.38  0.389775E+07 0.609709E+09 0.112486E+11 0.797353E+11
     1764.88  0.378935E+07 0.593779E+09 0.109374E+11 0.777449E+11
     1765.39  0.368340E+07 0.578178E+09 0.106333E+11 0.757927E+11
     1765.89  0.358003E+07 0.562927E+09 0.103365E+11 0.738814E+11
     1766.00  0.355709E+07 0.559538E+09 0.102706E+11 0.734564E+11
     1766.39  0.347934E+07 0.548042E+09 0.100473E+11 0.720136E+11
     1766.89  0.338138E+07 0.533536E+09 0.976597E+10 0.701908E+11
     1767.39  0.328620E+07 0.519416E+09 0.949254E+10 0.684144E+11
     1767.89  0.319381E+07 0.505689E+09 0.922710E+10 0.666853E+11
     1768.39  0.310422E+07 0.492356E+09 0.896965E+10 0.650039E+11
     1768.89  0.301740E+07 0.479417E+09 0.872016E+10 0.633704E+11
     1769.40  0.293335E+07 0.466871E+09 0.847856E+10 0.617848E+11
     1769.90  0.285201E+07 0.454713E+09 0.824473E+10 0.602467E+11
     1770.40  0.277334E+07 0.442938E+09 0.801856E+10 0.587555E+11
     1770.90  0.269728E+07 0.431539E+09 0.779988E+10 0.573107E+11
     1771.40  0.262379E+07 0.420510E+09 0.758853E+10 0.559114E+11
     1771.90  0.255279E+07 0.409842E+09 0.738433E+10 0.545567E+11
     1772.40  0.248421E+07 0.399526E+09 0.718709E+10 0.532455E+11
     1772.90  0.241800E+07 0.389552E+09 0.699661E+10 0.519769E+11
     1773.41  0.235407E+07 0.379912E+09 0.681268E+10 0.507496E+11
     1773.91  0.229235E+07 0.370595E+09 0.663510E+10 0.495626E+11
     1774.41  0.223277E+07 0.361592E+09 0.646367E+10 0.484146E+11
     1774.91  0.217527E+07 0.352892E+09 0.629818E+10 0.473045E+11
     1775.41  0.211976E+07 0.344485E+09 0.613842E+10 0.462310E+11
     1775.91  0.206618E+07 0.336362E+09 0.598419E+10 0.451929E+11
     1776.00  0.205697E+07 0.334965E+09 0.595768E+10 0.450143E+11
     1776.41  0.201445E+07 0.328513E+09 0.583529E+10 0.441892E+11
     1776.91  0.196452E+07 0.320928E+09 0.569154E+10 0.432186E+11
     1777.42  0.191631E+07 0.313597E+09 0.555273E+10 0.422799E+11
     1777.92  0.186976E+07 0.306512E+09 0.541869E+10 0.413721E+11
     1778.42  0.182480E+07 0.299664E+09 0.528922E+10 0.404940E+11
     1778.92  0.178138E+07 0.293043E+09 0.516417E+10 0.396446E+11
     1779.42  0.173943E+07 0.286642E+09 0.504336E+10 0.388229E+11
     1779.92  0.169891E+07 0.280451E+09 0.492662E+10 0.380278E+11
     1780.42  0.165974E+07 0.274464E+09 0.481381E+10 0.372583E+11
     1780.92  0.162189E+07 0.268673E+09 0.470476E+10 0.365135E+11
     1781.43  0.158530E+07 0.263069E+09 0.459933E+10 0.357925E+11
     1781.93  0.154991E+07 0.257647E+09 0.449738E+10 0.350944E+11
     1782.43  0.151569E+07 0.252398E+09 0.439877E+10 0.344184E+11
     1782.93  0.148259E+07 0.247317E+09 0.430338E+10 0.337636E+11
     1783.43  0.145057E+07 0.242397E+09 0.421107E+10 0.331292E+11
     1783.93  0.141957E+07 0.237632E+09 0.412174E+10 0.325145E+11
     1784.43  0.138957E+07 0.233016E+09 0.403525E+10 0.319187E+11
     1784.93  0.136052E+07 0.228544E+09 0.395151E+10 0.313412E+11
     1785.44  0.133239E+07 0.224209E+09 0.387041E+10 0.307812E+11
     1785.94  0.130513E+07 0.220008E+09 0.379184E+10 0.302381E+11
     1786.00  0.130177E+07 0.219490E+09 0.378216E+10 0.301711E+11
     1786.44  0.127873E+07 0.215934E+09 0.371572E+10 0.297113E+11
     1786.94  0.125314E+07 0.211983E+09 0.364193E+10 0.292002E+11
     1787.44  0.122834E+07 0.208151E+09 0.357041E+10 0.287042E+11
     1787.94  0.120429E+07 0.204433E+09 0.350105E+10 0.282228E+11
     1788.44  0.118096E+07 0.200825E+09 0.343378E+10 0.277554E+11
     1788.94  0.115834E+07 0.197322E+09 0.336852E+10 0.273015E+11
     1789.45  0.113638E+07 0.193921E+09 0.330520E+10 0.268606E+11
     1789.95  0.111508E+07 0.190619E+09 0.324374E+10 0.264323E+11
     1790.45  0.109439E+07 0.187411E+09 0.318407E+10 0.260161E+11
     1790.95  0.107431E+07 0.184295E+09 0.312613E+10 0.256116E+11
     1791.45  0.105481E+07 0.181266E+09 0.306986E+10 0.252184E+11
     1791.95  0.103586E+07 0.178322E+09 0.301519E+10 0.248361E+11
     1792.45  0.101745E+07 0.175460E+09 0.296207E+10 0.244642E+11
     1792.95  0.999558E+06 0.172677E+09 0.291043E+10 0.241025E+11
     1793.46  0.982165E+06 0.169970E+09 0.286024E+10 0.237505E+11
     1793.96  0.965253E+06 0.167337E+09 0.281143E+10 0.234080E+11
     1794.46  0.948805E+06 0.164774E+09 0.276396E+10 0.230746E+11
     1794.96  0.932805E+06 0.162280E+09 0.271778E+10 0.227500E+11
     1795.46  0.917238E+06 0.159853E+09 0.267284E+10 0.224340E+11
     1795.96  0.902088E+06 0.157489E+09 0.262911E+10 0.221261E+11
     1796.00  0.900961E+06 0.157313E+09 0.262586E+10 0.221032E+11
     1796.46  0.887341E+06 0.155186E+09 0.258654E+10 0.218262E+11
     1796.96  0.872983E+06 0.152944E+09 0.254509E+10 0.215340E+11
     1797.47  0.859001E+06 0.150759E+09 0.250472E+10 0.212493E+11
     1797.97  0.845382E+06 0.148630E+09 0.246540E+10 0.209717E+11
     1798.47  0.832115E+06 0.146555E+09 0.242709E+10 0.207011E+11
     1798.97  0.819186E+06 0.144532E+09 0.238976E+10 0.204372E+11
     1799.47  0.806585E+06 0.142559E+09 0.235337E+10 0.201799E+11
     1799.97  0.794302E+06 0.140635E+09 0.231789E+10 0.199288E+11
     1800.47  0.782325E+06 0.138759E+09 0.228331E+10 0.196839E+11
     1800.97  0.770645E+06 0.136928E+09 0.224957E+10 0.194449E+11
     1801.48  0.759253E+06 0.135142E+09 0.221667E+10 0.192116E+11
     1801.98  0.748138E+06 0.133398E+09 0.218456E+10 0.189839E+11
     1802.48  0.737293E+06 0.131696E+09 0.215323E+10 0.187616E+11
     1802.98  0.726708E+06 0.130035E+09 0.212266E+10 0.185445E+11
     1803.48  0.716376E+06 0.128412E+09 0.209281E+10 0.183324E+11
     1803.98  0.706288E+06 0.126827E+09 0.206366E+10 0.181253E+11
     1804.48  0.696437E+06 0.125279E+09 0.203520E+10 0.179229E+11
     1804.98  0.686815E+06 0.123766E+09 0.200740E+10 0.177251E+11
     1805.49  0.677417E+06 0.122288E+09 0.198025E+10 0.175318E+11
     1805.99  0.668234E+06 0.120844E+09 0.195371E+10 0.173429E+11
     1806.00  0.668002E+06 0.120807E+09 0.195305E+10 0.173381E+11
     1806.49  0.659260E+06 0.119432E+09 0.192778E+10 0.171582E+11
     1806.99  0.650489E+06 0.118051E+09 0.190244E+10 0.169776E+11
     1807.49  0.641916E+06 0.116701E+09 0.187766E+10 0.168009E+11
     1807.99  0.633533E+06 0.115381E+09 0.185344E+10 0.166282E+11
     1808.49  0.625336E+06 0.114090E+09 0.182975E+10 0.164592E+11
     1808.99  0.617319E+06 0.112826E+09 0.180657E+10 0.162938E+11
     1809.50  0.609477E+06 0.111590E+09 0.178391E+10 0.161320E+11
     1810.00  0.601805E+06 0.110381E+09 0.176173E+10 0.159737E+11
     1810.50  0.594297E+06 0.109197E+09 0.174003E+10 0.158187E+11
     1811.00  0.586950E+06 0.108038E+09 0.171879E+10 0.156670E+11
     1811.50  0.579758E+06 0.106903E+09 0.169800E+10 0.155184E+11
     1812.00  0.572718E+06 0.105792E+09 0.167765E+10 0.153729E+11
     1812.50  0.565825E+06 0.104704E+09 0.165772E+10 0.152305E+11
     1813.00  0.559075E+06 0.103639E+09 0.163820E+10 0.150909E+11
     1813.51  0.552463E+06 0.102595E+09 0.161909E+10 0.149542E+11
     1814.01  0.545987E+06 0.101572E+09 0.160037E+10 0.148203E+11
     1814.51  0.539643E+06 0.100570E+09 0.158202E+10 0.146891E+11
     1815.01  0.533426E+06 0.995882E+08 0.156405E+10 0.145605E+11
     1815.51  0.527335E+06 0.986258E+08 0.154643E+10 0.144345E+11
     1816.00  0.521509E+06 0.977053E+08 0.152959E+10 0.143139E+11
     1816.01  0.521364E+06 0.976824E+08 0.152917E+10 0.143109E+11
     1816.51  0.515511E+06 0.967575E+08 0.151224E+10 0.141898E+11
     1817.01  0.509773E+06 0.958507E+08 0.149565E+10 0.140710E+11
     1817.52  0.504147E+06 0.949614E+08 0.147938E+10 0.139546E+11
     1818.02  0.498630E+06 0.940893E+08 0.146342E+10 0.138404E+11
     1818.52  0.493219E+06 0.932339E+08 0.144777E+10 0.137284E+11
     1819.02  0.487912E+06 0.923948E+08 0.143242E+10 0.136185E+11
     1819.52  0.482705E+06 0.915715E+08 0.141736E+10 0.135108E+11
     1820.02  0.477596E+06 0.907638E+08 0.140259E+10 0.134050E+11
     1820.52  0.472583E+06 0.899711E+08 0.138809E+10 0.133013E+11
     1821.02  0.467664E+06 0.891932E+08 0.137386E+10 0.131995E+11
     1821.53  0.462835E+06 0.884296E+08 0.135989E+10 0.130995E+11
     1822.03  0.458095E+06 0.876800E+08 0.134618E+10 0.130014E+11
     1822.53  0.453442E+06 0.869442E+08 0.133272E+10 0.129052E+11
     1823.03  0.448873E+06 0.862216E+08 0.131950E+10 0.128107E+11
     1823.53  0.444386E+06 0.855122E+08 0.130652E+10 0.127179E+11
     1824.03  0.439979E+06 0.848154E+08 0.129377E+10 0.126267E+11
     1824.53  0.435651E+06 0.841310E+08 0.128125E+10 0.125372E+11
     1825.03  0.431400E+06 0.834588E+08 0.126895E+10 0.124494E+11
     1825.54  0.427223E+06 0.827985E+08 0.125687E+10 0.123630E+11
     1826.00  0.423422E+06 0.821976E+08 0.124587E+10 0.122845E+11
     1826.04  0.423119E+06 0.821497E+08 0.124500E+10 0.122783E+11
     1826.54  0.419087E+06 0.815122E+08 0.123333E+10 0.121950E+11
     1827.04  0.415123E+06 0.808858E+08 0.122186E+10 0.121131E+11
     1827.54  0.411228E+06 0.802702E+08 0.121059E+10 0.120327E+11
     1828.04  0.407399E+06 0.796651E+08 0.119951E+10 0.119537E+11
     1828.54  0.403635E+06 0.790704E+08 0.118862E+10 0.118761E+11
     1829.04  0.399935E+06 0.784857E+08 0.117791E+10 0.117998E+11
     1829.55  0.396296E+06 0.779110E+08 0.116738E+10 0.117248E+11
     1830.05  0.392718E+06 0.773458E+08 0.115703E+10 0.116510E+11
     1830.55  0.389198E+06 0.767901E+08 0.114685E+10 0.115786E+11
     1831.05  0.385737E+06 0.762436E+08 0.113683E+10 0.115073E+11
     1831.55  0.382332E+06 0.757062E+08 0.112698E+10 0.114373E+11
     1832.05  0.378983E+06 0.751776E+08 0.111729E+10 0.113684E+11
     1832.55  0.375687E+06 0.746576E+08 0.110775E+10 0.113007E+11
     1833.05  0.372445E+06 0.741461E+08 0.109837E+10 0.112341E+11
     1833.56  0.369254E+06 0.736429E+08 0.108913E+10 0.111686E+11
     1834.06  0.366114E+06 0.731478E+08 0.108004E+10 0.111041E+11
     1834.56  0.363023E+06 0.726606E+08 0.107110E+10 0.110408E+11
     1835.06  0.359981E+06 0.721812E+08 0.106230E+10 0.109784E+11
     1835.56  0.356986E+06 0.717094E+08 0.105363E+10 0.109171E+11
     1836.00  0.354402E+06 0.713024E+08 0.104615E+10 0.108642E+11
     1836.06  0.354038E+06 0.712450E+08 0.104510E+10 0.108568E+11
     1836.56  0.351135E+06 0.707880E+08 0.103669E+10 0.107974E+11
     1837.06  0.348276E+06 0.703381E+08 0.102842E+10 0.107390E+11
     1837.57  0.345461E+06 0.698952E+08 0.102028E+10 0.106816E+11
     1838.07  0.342689E+06 0.694591E+08 0.101225E+10 0.106250E+11
     1838.57  0.339958E+06 0.690298E+08 0.100435E+10 0.105693E+11
     1839.07  0.337269E+06 0.686071E+08 0.996566E+09 0.105146E+11
     1839.57  0.334619E+06 0.681908E+08 0.988897E+09 0.104606E+11
     1840.07  0.332009E+06 0.677809E+08 0.981343E+09 0.104076E+11
     1840.57  0.329437E+06 0.673772E+08 0.973900E+09 0.103553E+11
     1841.07  0.326903E+06 0.669796E+08 0.966566E+09 0.103039E+11
     1841.58  0.324406E+06 0.665879E+08 0.959339E+09 0.102533E+11
     1842.08  0.321945E+06 0.662021E+08 0.952217E+09 0.102034E+11
     1842.58  0.319520E+06 0.658220E+08 0.945197E+09 0.101544E+11
     1843.08  0.317129E+06 0.654476E+08 0.938278E+09 0.101060E+11
     1843.58  0.314773E+06 0.650787E+08 0.931458E+09 0.100585E+11
     1844.08  0.312450E+06 0.647152E+08 0.924735E+09 0.100116E+11
     1844.58  0.310160E+06 0.643570E+08 0.918106E+09 0.996547E+10
     1845.08  0.307902E+06 0.640041E+08 0.911571E+09 0.992003E+10
     1845.59  0.305675E+06 0.636562E+08 0.905127E+09 0.987527E+10
     1846.00  0.303860E+06 0.633729E+08 0.899875E+09 0.983884E+10
     1846.09  0.303479E+06 0.633134E+08 0.898773E+09 0.983119E+10
     1846.59  0.301314E+06 0.629755E+08 0.892506E+09 0.978778E+10
     1847.09  0.299179E+06 0.626425E+08 0.886326E+09 0.974501E+10
     1847.59  0.297072E+06 0.623142E+08 0.880230E+09 0.970289E+10
     1848.09  0.294995E+06 0.619906E+08 0.874217E+09 0.966139E+10
     1848.59  0.292945E+06 0.616715E+08 0.868286E+09 0.962051E+10
     1849.09  0.290924E+06 0.613570E+08 0.862435E+09 0.958023E+10
     1849.60  0.288929E+06 0.610469E+08 0.856662E+09 0.954055E+10
     1850.10  0.286961E+06 0.607411E+08 0.850966E+09 0.950145E+10
     1850.60  0.285019E+06 0.604396E+08 0.845346E+09 0.946293E+10
     1851.10  0.283102E+06 0.601423E+08 0.839800E+09 0.942498E+10
     1856.00  0.265627E+06 0.574418E+08 0.789231E+09 0.908180E+10
     1866.00  0.235915E+06 0.529110E+08 0.703272E+09 0.851454E+10
     1876.00  0.212291E+06 0.493941E+08 0.634969E+09 0.808607E+10
     1886.00  0.193137E+06 0.466321E+08 0.579637E+09 0.776211E+10
     1896.00  0.177340E+06 0.444456E+08 0.534052E+09 0.751882E+10
     1906.00  0.164113E+06 0.427073E+08 0.495935E+09 0.733920E+10
     1916.00  0.152885E+06 0.413242E+08 0.463632E+09 0.721081E+10
     1926.00  0.143234E+06 0.402271E+08 0.435920E+09 0.712434E+10
     1936.00  0.134844E+06 0.393632E+08 0.411876E+09 0.707268E+10
     1946.00  0.127471E+06 0.386917E+08 0.390790E+09 0.705029E+10
     1956.00  0.120924E+06 0.381806E+08 0.372111E+09 0.705275E+10
     1966.00  0.115055E+06 0.378041E+08 0.355404E+09 0.707650E+10
     1976.00  0.109744E+06 0.375411E+08 0.340320E+09 0.711860E+10
     1986.00  0.104895E+06 0.373743E+08 0.326577E+09 0.717656E+10
     1996.00  0.100431E+06 0.372891E+08 0.313946E+09 0.724826E+10
     2006.00  0.962864E+05 0.372730E+08 0.302240E+09 0.733185E+10
     2016.00  0.924091E+05 0.373154E+08 0.291300E+09 0.742566E+10
     2026.00  0.887553E+05 0.374069E+08 0.280999E+09 0.752820E+10
     2036.00  0.852886E+05 0.375389E+08 0.271227E+09 0.763810E+10
     2046.00  0.819788E+05 0.377041E+08 0.261895E+09 0.775406E+10
     2056.00  0.788007E+05 0.378957E+08 0.252925E+09 0.787488E+10
     2066.00  0.757334E+05 0.381074E+08 0.244256E+09 0.799941E+10
     2076.00  0.727598E+05 0.383335E+08 0.235834E+09 0.812654E+10
     2086.00  0.698658E+05 0.385688E+08 0.227617E+09 0.825522E+10
     2096.00  0.670402E+05 0.388084E+08 0.219568E+09 0.838444E+10
     2106.00  0.642739E+05 0.390478E+08 0.211661E+09 0.851321E+10
     2116.00  0.615601E+05 0.392829E+08 0.203874E+09 0.864061E+10
     2126.00  0.588938E+05 0.395098E+08 0.196189E+09 0.876575E+10
     2136.00  0.562714E+05 0.397251E+08 0.188595E+09 0.888778E+10
     2146.00  0.536908E+05 0.399256E+08 0.181084E+09 0.900590E+10
     2156.00  0.511510E+05 0.401085E+08 0.173654E+09 0.911938E+10
     2166.00  0.486519E+05 0.402713E+08 0.166302E+09 0.922753E+10
     2176.00  0.461944E+05 0.404117E+08 0.159031E+09 0.932972E+10
     2186.00  0.437799E+05 0.405278E+08 0.151845E+09 0.942539E+10
     2196.00  0.414105E+05 0.406182E+08 0.144750E+09 0.951406E+10
     2206.00  0.390887E+05 0.406816E+08 0.137753E+09 0.959528E+10
     2216.00  0.368171E+05 0.407170E+08 0.130864E+09 0.966872E+10
     2226.00  0.345987E+05 0.407238E+08 0.124091E+09 0.973408E+10
     2236.00  0.324365E+05 0.407016E+08 0.117444E+09 0.979114E+10
     2246.00  0.303334E+05 0.406503E+08 0.110934E+09 0.983975E+10
     2256.00  0.282923E+05 0.405700E+08 0.104569E+09 0.987982E+10
     2266.00  0.263160E+05 0.404611E+08 0.983604E+08 0.991133E+10
     2276.00  0.244070E+05 0.403240E+08 0.923166E+08 0.993429E+10
     2286.00  0.225677E+05 0.401596E+08 0.864463E+08 0.994879E+10
     2296.00  0.208000E+05 0.399687E+08 0.807573E+08 0.995497E+10
     2306.00  0.191056E+05 0.397522E+08 0.752566E+08 0.995298E+10
     2316.00  0.174861E+05 0.395115E+08 0.699504E+08 0.994305E+10
     2326.00  0.159424E+05 0.392475E+08 0.648438E+08 0.992541E+10
     2336.00  0.144754E+05 0.389617E+08 0.599412E+08 0.990034E+10
     2346.00  0.130854E+05 0.386553E+08 0.552458E+08 0.986812E+10
     2356.00  0.117726E+05 0.383297E+08 0.507598E+08 0.982907E+10
     2366.00  0.105368E+05 0.379863E+08 0.464848E+08 0.978351E+10
     2376.00  0.937767E+04 0.376264E+08 0.424214E+08 0.973177E+10
     2386.00  0.829442E+04 0.372514E+08 0.385691E+08 0.967419E+10
     2396.00  0.728612E+04 0.368626E+08 0.349270E+08 0.961111E+10
     2406.00  0.635165E+04 0.364614E+08 0.314934E+08 0.954288E+10
     2416.00  0.548966E+04 0.360489E+08 0.282658E+08 0.946983E+10
     2426.00  0.469866E+04 0.356266E+08 0.252414E+08 0.939229E+10
     2436.00  0.397698E+04 0.351954E+08 0.224164E+08 0.931060E+10
     2446.00  0.332284E+04 0.347566E+08 0.197871E+08 0.922507E+10
     2456.00  0.273438E+04 0.343111E+08 0.173491E+08 0.913601E+10
     2466.00  0.220962E+04 0.338601E+08 0.150976E+08 0.904371E+10
     2476.00  0.174653E+04 0.334044E+08 0.130278E+08 0.894846E+10
     2486.00  0.134303E+04 0.329450E+08 0.111343E+08 0.885052E+10
     2496.00  0.996983E+03 0.324826E+08 0.941175E+07 0.875017E+10
     2506.00  0.706258E+03 0.320180E+08 0.785467E+07 0.864765E+10
     2516.00  0.468698E+03 0.315521E+08 0.645740E+07 0.854319E+10
     2526.00  0.282148E+03 0.310853E+08 0.521421E+07 0.843701E+10
     2536.00  0.144465E+03 0.306184E+08 0.411936E+07 0.832934E+10
     2546.00  0.535227E+02 0.301519E+08 0.316710E+07 0.822035E+10
     2556.00  0.721995E+01 0.296863E+08 0.235169E+07 0.811024E+10
     2566.00  0.348742E+01 0.292221E+08 0.166743E+07 0.799918E+10
     2576.00  0.402922E+02 0.287597E+08 0.110869E+07 0.788734E+10
     2586.00  0.115642E+03 0.282996E+08 0.669916E+06 0.777486E+10
     2596.00  0.227589E+03 0.278420E+08 0.345624E+06 0.766188E+10
     2606.00  0.374232E+03 0.273873E+08 0.130449E+06 0.754855E+10
     2616.00  0.553719E+03 0.269357E+08 0.191279E+05 0.743497E+10
     2626.00  0.764249E+03 0.264875E+08 0.651908E+04 0.732127E+10
     2636.00  0.100407E+04 0.260431E+08 0.876034E+05 0.720755E+10
     2646.00  0.127149E+04 0.256024E+08 0.257490E+06 0.709391E+10
     2656.00  0.156486E+04 0.251658E+08 0.511422E+06 0.698045E+10
     2666.00  0.188258E+04 0.247334E+08 0.844774E+06 0.686724E+10
     2676.00  0.222313E+04 0.243053E+08 0.125306E+07 0.675437E+10
     2686.00  0.258500E+04 0.238816E+08 0.173192E+07 0.664191E+10
     2696.00  0.296677E+04 0.234625E+08 0.227715E+07 0.652992E+10
     2706.00  0.336705E+04 0.230481E+08 0.288466E+07 0.641848E+10
     2716.00  0.378449E+04 0.226383E+08 0.355050E+07 0.630762E+10
     2726.00  0.421781E+04 0.222333E+08 0.427087E+07 0.619742E+10
     2736.00  0.466578E+04 0.218332E+08 0.504207E+07 0.608791E+10
     2746.00  0.512719E+04 0.214379E+08 0.586055E+07 0.597915E+10
     2756.00  0.560089E+04 0.210475E+08 0.672288E+07 0.587118E+10
     2766.00  0.608578E+04 0.206620E+08 0.762576E+07 0.576403E+10
     2776.00  0.658080E+04 0.202815E+08 0.856599E+07 0.565775E+10
     2786.00  0.708492E+04 0.199059E+08 0.954052E+07 0.555236E+10
     2796.00  0.759717E+04 0.195353E+08 0.105464E+08 0.544790E+10
     2806.00  0.811659E+04 0.191697E+08 0.115808E+08 0.534440E+10
     2816.00  0.864228E+04 0.188090E+08 0.126409E+08 0.524187E+10
     2826.00  0.917338E+04 0.184533E+08 0.137241E+08 0.514035E+10
     2836.00  0.970905E+04 0.181024E+08 0.148280E+08 0.503986E+10
     2846.00  0.102485E+05 0.177565E+08 0.159501E+08 0.494041E+10
     2856.00  0.107909E+05 0.174155E+08 0.170880E+08 0.484202E+10
     2866.00  0.113357E+05 0.170794E+08 0.182396E+08 0.474471E+10
     2876.00  0.118820E+05 0.167481E+08 0.194027E+08 0.464851E+10
     2886.00  0.124292E+05 0.164216E+08 0.205753E+08 0.455341E+10
     2896.00  0.129766E+05 0.160999E+08 0.217553E+08 0.445943E+10
     2906.00  0.135238E+05 0.157829E+08 0.229410E+08 0.436658E+10
     2916.00  0.140699E+05 0.154707E+08 0.241304E+08 0.427488E+10
     2926.00  0.146146E+05 0.151631E+08 0.253220E+08 0.418433E+10
     2936.00  0.151572E+05 0.148602E+08 0.265140E+08 0.409493E+10
     2946.00  0.156973E+05 0.145619E+08 0.277049E+08 0.400670E+10
     2956.00  0.162344E+05 0.142682E+08 0.288933E+08 0.391964E+10
     2966.00  0.167679E+05 0.139789E+08 0.300775E+08 0.383375E+10
     2976.00  0.172975E+05 0.136942E+08 0.312564E+08 0.374904E+10
     2986.00  0.178228E+05 0.134139E+08 0.324286E+08 0.366550E+10
     2996.00  0.183433E+05 0.131380E+08 0.335929E+08 0.358315E+10
     3006.00  0.188587E+05 0.128665E+08 0.347481E+08 0.350199E+10
     3016.00  0.193686E+05 0.125993E+08 0.358931E+08 0.342201E+10
     3026.00  0.198726E+05 0.123364E+08 0.370268E+08 0.334321E+10
     3036.00  0.203705E+05 0.120777E+08 0.381484E+08 0.326560E+10
     3046.00  0.208620E+05 0.118232E+08 0.392567E+08 0.318916E+10
     3056.00  0.213467E+05 0.115729E+08 0.403510E+08 0.311391E+10
     3066.00  0.218244E+05 0.113267E+08 0.414304E+08 0.303984E+10
     3076.00  0.222949E+05 0.110845E+08 0.424941E+08 0.296694E+10
     3086.00  0.227578E+05 0.108464E+08 0.435414E+08 0.289521E+10
     3096.00  0.232131E+05 0.106122E+08 0.445716E+08 0.282466E+10
     3106.00  0.236604E+05 0.103819E+08 0.455840E+08 0.275526E+10
     3116.00  0.240996E+05 0.101556E+08 0.465781E+08 0.268702E+10
     3126.00  0.245305E+05 0.993309E+07 0.475532E+08 0.261994E+10
     3136.00  0.249530E+05 0.971440E+07 0.485089E+08 0.255401E+10
     3146.00  0.253669E+05 0.949946E+07 0.494447E+08 0.248921E+10
     3156.00  0.257721E+05 0.928825E+07 0.503601E+08 0.242556E+10
     3166.00  0.261683E+05 0.908071E+07 0.512548E+08 0.236303E+10
     3176.00  0.265556E+05 0.887681E+07 0.521283E+08 0.230162E+10
     3186.00  0.269339E+05 0.867649E+07 0.529804E+08 0.224133E+10
     3196.00  0.273029E+05 0.847972E+07 0.538107E+08 0.218215E+10
     3206.00  0.276627E+05 0.828646E+07 0.546189E+08 0.212406E+10
     3216.00  0.280132E+05 0.809666E+07 0.554049E+08 0.206706E+10
     3226.00  0.283542E+05 0.791027E+07 0.561683E+08 0.201114E+10
     3236.00  0.286859E+05 0.772727E+07 0.569091E+08 0.195630E+10
     3246.00  0.290080E+05 0.754760E+07 0.576271E+08 0.190251E+10
     3256.00  0.293207E+05 0.737122E+07 0.583221E+08 0.184978E+10
     3266.00  0.296238E+05 0.719809E+07 0.589941E+08 0.179810E+10
     3276.00  0.299173E+05 0.702818E+07 0.596429E+08 0.174745E+10
     3286.00  0.302012E+05 0.686143E+07 0.602686E+08 0.169782E+10
     3296.00  0.304756E+05 0.669781E+07 0.608710E+08 0.164921E+10
     3306.00  0.307404E+05 0.653728E+07 0.614502E+08 0.160160E+10
     3316.00  0.309957E+05 0.637978E+07 0.620062E+08 0.155498E+10
     3326.00  0.312413E+05 0.622530E+07 0.625390E+08 0.150934E+10
     3336.00  0.314775E+05 0.607377E+07 0.630487E+08 0.146467E+10
     3346.00  0.317042E+05 0.592517E+07 0.635352E+08 0.142096E+10
     3356.00  0.319214E+05 0.577945E+07 0.639988E+08 0.137820E+10
     3366.00  0.321292E+05 0.563657E+07 0.644395E+08 0.133638E+10
     3376.00  0.323277E+05 0.549649E+07 0.648575E+08 0.129548E+10
     3386.00  0.325168E+05 0.535918E+07 0.652528E+08 0.125550E+10
     3396.00  0.326967E+05 0.522460E+07 0.656257E+08 0.121641E+10
     3406.00  0.328674E+05 0.509270E+07 0.659762E+08 0.117822E+10
     3416.00  0.330290E+05 0.496345E+07 0.663047E+08 0.114091E+10
     3426.00  0.331815E+05 0.483680E+07 0.666111E+08 0.110446E+10
     3436.00  0.333250E+05 0.471273E+07 0.668958E+08 0.106887E+10
     3446.00  0.334596E+05 0.459119E+07 0.671590E+08 0.103412E+10
     3456.00  0.335855E+05 0.447214E+07 0.674009E+08 0.100020E+10
     3466.00  0.337025E+05 0.435556E+07 0.676217E+08 0.967106E+09
     3476.00  0.338110E+05 0.424139E+07 0.678216E+08 0.934814E+09
     3486.00  0.339109E+05 0.412961E+07 0.680010E+08 0.903317E+09
     3496.00  0.340023E+05 0.402018E+07 0.681601E+08 0.872603E+09
     3506.00  0.340854E+05 0.391305E+07 0.682991E+08 0.842660E+09
     3516.00  0.341602E+05 0.380821E+07 0.684183E+08 0.813476E+09
     3526.00  0.342269E+05 0.370560E+07 0.685180E+08 0.785038E+09
     3536.00  0.342856E+05 0.360520E+07 0.685985E+08 0.757335E+09
     3546.00  0.343363E+05 0.350697E+07 0.686602E+08 0.730355E+09
     3556.00  0.343792E+05 0.341088E+07 0.687032E+08 0.704085E+09
     3566.00  0.344144E+05 0.331689E+07 0.687279E+08 0.678514E+09
     3576.00  0.344419E+05 0.322496E+07 0.687345E+08 0.653629E+09
     3586.00  0.344620E+05 0.313506E+07 0.687235E+08 0.629419E+09
     3596.00  0.344747E+05 0.304717E+07 0.686951E+08 0.605872E+09
     3606.00  0.344801E+05 0.296124E+07 0.686497E+08 0.582976E+09
     3616.00  0.344784E+05 0.287724E+07 0.685875E+08 0.560720E+09
     3626.00  0.344697E+05 0.279514E+07 0.685089E+08 0.539091E+09
     3636.00  0.344540E+05 0.271491E+07 0.684142E+08 0.518079E+09
     3646.00  0.344316E+05 0.263652E+07 0.683037E+08 0.497671E+09
     3656.00  0.344026E+05 0.255993E+07 0.681778E+08 0.477856E+09
     3666.00  0.343669E+05 0.248512E+07 0.680369E+08 0.458624E+09
     3676.00  0.343249E+05 0.241205E+07 0.678811E+08 0.439961E+09
     3686.00  0.342766E+05 0.234069E+07 0.677109E+08 0.421859E+09
     3696.00  0.342221E+05 0.227101E+07 0.675266E+08 0.404304E+09
     3706.00  0.341615E+05 0.220299E+07 0.673286E+08 0.387286E+09
     3716.00  0.340950E+05 0.213658E+07 0.671171E+08 0.370795E+09
     3726.00  0.340227E+05 0.207177E+07 0.668924E+08 0.354820E+09
     3736.00  0.339447E+05 0.200852E+07 0.666550E+08 0.339349E+09
     3746.00  0.338612E+05 0.194681E+07 0.664052E+08 0.324372E+09
     3756.00  0.337722E+05 0.188660E+07 0.661432E+08 0.309878E+09
     3766.00  0.336779E+05 0.182787E+07 0.658694E+08 0.295858E+09
     3776.00  0.335784E+05 0.177060E+07 0.655842E+08 0.282302E+09
     3786.00  0.334738E+05 0.171474E+07 0.652878E+08 0.269197E+09
     3796.00  0.333643E+05 0.166029E+07 0.649807E+08 0.256536E+09
     3806.00  0.332499E+05 0.160721E+07 0.646630E+08 0.244307E+09
     3816.00  0.331309E+05 0.155547E+07 0.643352E+08 0.232502E+09
     3826.00  0.330072E+05 0.150505E+07 0.639975E+08 0.221110E+09
     3836.00  0.328791E+05 0.145592E+07 0.636503E+08 0.210121E+09
     3846.00  0.327466E+05 0.140806E+07 0.632939E+08 0.199527E+09
     3856.00  0.326099E+05 0.136144E+07 0.629286E+08 0.189318E+09
     3866.00  0.324691E+05 0.131605E+07 0.625546E+08 0.179484E+09
     3876.00  0.323243E+05 0.127184E+07 0.621723E+08 0.170017E+09
     3886.00  0.321756E+05 0.122881E+07 0.617821E+08 0.160907E+09
     3896.00  0.320231E+05 0.118693E+07 0.613841E+08 0.152147E+09
     3906.00  0.318669E+05 0.114616E+07 0.609787E+08 0.143726E+09
     3916.00  0.317072E+05 0.110650E+07 0.605663E+08 0.135637E+09
     3926.00  0.315441E+05 0.106792E+07 0.601469E+08 0.127871E+09
     3936.00  0.313777E+05 0.103039E+07 0.597211E+08 0.120420E+09
     3946.00  0.312080E+05 0.993898E+06 0.592890E+08 0.113276E+09
     3956.00  0.310352E+05 0.958417E+06 0.588508E+08 0.106429E+09
     3966.00  0.308594E+05 0.923927E+06 0.584070E+08 0.998737E+08
     3976.00  0.306807E+05 0.890407E+06 0.579577E+08 0.936007E+08
     3986.00  0.304992E+05 0.857836E+06 0.575033E+08 0.876027E+08
     3996.00  0.303151E+05 0.826195E+06 0.570439E+08 0.818721E+08
     4006.00  0.301283E+05 0.795462E+06 0.565798E+08 0.764015E+08
     4016.00  0.299390E+05 0.765619E+06 0.561114E+08 0.711836E+08
     4026.00  0.297474E+05 0.736645E+06 0.556387E+08 0.662112E+08
     4036.00  0.295534E+05 0.708522E+06 0.551621E+08 0.614773E+08
     4046.00  0.293573E+05 0.681230E+06 0.546819E+08 0.569749E+08
     4056.00  0.291590E+05 0.654752E+06 0.541982E+08 0.526972E+08
     4066.00  0.289587E+05 0.629069E+06 0.537113E+08 0.486376E+08
     4076.00  0.287565E+05 0.604163E+06 0.532214E+08 0.447895E+08
     4086.00  0.285525E+05 0.580017E+06 0.527287E+08 0.411465E+08
     4096.00  0.283468E+05 0.556613E+06 0.522335E+08 0.377022E+08
     4106.00  0.281393E+05 0.533934E+06 0.517360E+08 0.344506E+08
     4116.00  0.279304E+05 0.511963E+06 0.512363E+08 0.313854E+08
     4126.00  0.277199E+05 0.490684E+06 0.507348E+08 0.285009E+08
     4136.00  0.275080E+05 0.470081E+06 0.502315E+08 0.257911E+08
     4146.00  0.272949E+05 0.450137E+06 0.497268E+08 0.232503E+08
     4156.00  0.270805E+05 0.430838E+06 0.492207E+08 0.208730E+08
     4166.00  0.268649E+05 0.412167E+06 0.487135E+08 0.186537E+08
     4176.00  0.266483E+05 0.394109E+06 0.482053E+08 0.165870E+08
     4186.00  0.264307E+05 0.376651E+06 0.476964E+08 0.146678E+08
     4196.00  0.262121E+05 0.359776E+06 0.471869E+08 0.128908E+08
     4206.00  0.259927E+05 0.343471E+06 0.466771E+08 0.112510E+08
     4216.00  0.257725E+05 0.327722E+06 0.461670E+08 0.974362E+07
     4226.00  0.255517E+05 0.312515E+06 0.456568E+08 0.836375E+07
     4236.00  0.253302E+05 0.297837E+06 0.451467E+08 0.710674E+07
     4246.00  0.251081E+05 0.283674E+06 0.446369E+08 0.596800E+07
     4256.00  0.248855E+05 0.270012E+06 0.441275E+08 0.494305E+07
     4266.00  0.246626E+05 0.256840E+06 0.436187E+08 0.402752E+07
     4276.00  0.244392E+05 0.244145E+06 0.431106E+08 0.321714E+07
     4286.00  0.242156E+05 0.231914E+06 0.426033E+08 0.250774E+07
     4296.00  0.239917E+05 0.220135E+06 0.420970E+08 0.189526E+07
     4306.00  0.237676E+05 0.208796E+06 0.415919E+08 0.137571E+07
     4316.00  0.235434E+05 0.197886E+06 0.410880E+08 0.945248E+06
     4326.00  0.233192E+05 0.187394E+06 0.405855E+08 0.600081E+06
     4336.00  0.230950E+05 0.177307E+06 0.400844E+08 0.336533E+06
     4346.00  0.228708E+05 0.167616E+06 0.395851E+08 0.151020E+06
     4356.00  0.226467E+05 0.158309E+06 0.390874E+08 0.400475E+05
     4366.00  0.224228E+05 0.149376E+06 0.385916E+08 0.213401E+03
     4376.00  0.221991E+05 0.140807E+06 0.380978E+08 0.282048E+05
     4386.00  0.219757E+05 0.132591E+06 0.376061E+08 0.120797E+06
     4396.00  0.217525E+05 0.124718E+06 0.371165E+08 0.274853E+06
     4406.00  0.215298E+05 0.117180E+06 0.366292E+08 0.487319E+06
     4416.00  0.213074E+05 0.109965E+06 0.361443E+08 0.755227E+06
     4426.00  0.210855E+05 0.103066E+06 0.356618E+08 0.107569E+07
     4436.00  0.208641E+05 0.964722E+05 0.351819E+08 0.144591E+07
     4446.00  0.206433E+05 0.901757E+05 0.347046E+08 0.186316E+07
     4456.00  0.204230E+05 0.841674E+05 0.342300E+08 0.232478E+07
     4466.00  0.202034E+05 0.784388E+05 0.337583E+08 0.282823E+07
     4476.00  0.199844E+05 0.729815E+05 0.332894E+08 0.337099E+07
     4486.00  0.197661E+05 0.677874E+05 0.328234E+08 0.395065E+07
     4511.00  0.192237E+05 0.559013E+05 0.316718E+08 0.554603E+07
     4536.00  0.186865E+05 0.454903E+05 0.305402E+08 0.732287E+07
     4561.00  0.181551E+05 0.364407E+05 0.294293E+08 0.924912E+07
     4586.00  0.176298E+05 0.286452E+05 0.283401E+08 0.112953E+08
     4611.00  0.171111E+05 0.220024E+05 0.272731E+08 0.134343E+08
     4636.00  0.165995E+05 0.164171E+05 0.262291E+08 0.156413E+08
     4661.00  0.160953E+05 0.117994E+05 0.252086E+08 0.178938E+08
     4686.00  0.155988E+05 0.806486E+04 0.242120E+08 0.201712E+08
     4711.00  0.151104E+05 0.513416E+04 0.232397E+08 0.224548E+08
     4736.00  0.146303E+05 0.293285E+04 0.222920E+08 0.247280E+08
     4761.00  0.141587E+05 0.139115E+04 0.213691E+08 0.269756E+08
     4786.00  0.136959E+05 0.443769E+03 0.204711E+08 0.291842E+08
     4811.00  0.132421E+05 0.296428E+02 0.195982E+08 0.313419E+08
     4836.00  0.127973E+05 0.917730E+02 0.187503E+08 0.334383E+08
     4861.00  0.123618E+05 0.577014E+03 0.179274E+08 0.354641E+08
     4886.00  0.119356E+05 0.143589E+04 0.171295E+08 0.374115E+08
     4911.00  0.115189E+05 0.262240E+04 0.163564E+08 0.392736E+08
     4936.00  0.111116E+05 0.409387E+04 0.156079E+08 0.410449E+08
     4961.00  0.107139E+05 0.581073E+04 0.148838E+08 0.427205E+08
     4986.00  0.103257E+05 0.773641E+04 0.141839E+08 0.442967E+08
     5011.00  0.994715E+04 0.983714E+04 0.135079E+08 0.457706E+08
     5036.00  0.957813E+04 0.120818E+05 0.128554E+08 0.471400E+08
     5061.00  0.921866E+04 0.144418E+05 0.122262E+08 0.484035E+08
     5086.00  0.886869E+04 0.168910E+05 0.116198E+08 0.495603E+08
     5111.00  0.852817E+04 0.194053E+05 0.110358E+08 0.506102E+08
     5136.00  0.819704E+04 0.219629E+05 0.104738E+08 0.515536E+08
     5161.00  0.787522E+04 0.245438E+05 0.993350E+07 0.523913E+08
     5186.00  0.756263E+04 0.271301E+05 0.941430E+07 0.531245E+08
     5211.00  0.725918E+04 0.297055E+05 0.891577E+07 0.537549E+08
     5236.00  0.696475E+04 0.322553E+05 0.843746E+07 0.542846E+08
     5261.00  0.667922E+04 0.347664E+05 0.797886E+07 0.547159E+08
     5286.00  0.640249E+04 0.372271E+05 0.753948E+07 0.550513E+08
     5311.00  0.613441E+04 0.396271E+05 0.711882E+07 0.552936E+08
     5336.00  0.587486E+04 0.419574E+05 0.671638E+07 0.554458E+08
     5361.00  0.562369E+04 0.442100E+05 0.633165E+07 0.555113E+08
     5386.00  0.538075E+04 0.463780E+05 0.596411E+07 0.554932E+08
     5411.00  0.514590E+04 0.484557E+05 0.561327E+07 0.553950E+08
     5436.00  0.491898E+04 0.504381E+05 0.527860E+07 0.552202E+08
     5461.00  0.469983E+04 0.523212E+05 0.495960E+07 0.549725E+08
     5511.00  0.428421E+04 0.557772E+05 0.436659E+07 0.542727E+08
     5561.00  0.389774E+04 0.588062E+05 0.383027E+07 0.533250E+08
     5611.00  0.353907E+04 0.614006E+05 0.334673E+07 0.521586E+08
     5661.00  0.320687E+04 0.635612E+05 0.291218E+07 0.508023E+08
     5711.00  0.289979E+04 0.652952E+05 0.252295E+07 0.492837E+08
     5761.00  0.261649E+04 0.666156E+05 0.217552E+07 0.476296E+08
     5811.00  0.235565E+04 0.675398E+05 0.186651E+07 0.458651E+08
     5861.00  0.211597E+04 0.680882E+05 0.159273E+07 0.440139E+08
     5911.00  0.189617E+04 0.682841E+05 0.135112E+07 0.420978E+08
     5961.00  0.169502E+04 0.681524E+05 0.113882E+07 0.401371E+08
     6011.00  0.151133E+04 0.677192E+05 0.953109E+06 0.381504E+08
     6061.00  0.134394E+04 0.670112E+05 0.791464E+06 0.361543E+08
     6111.00  0.119173E+04 0.660551E+05 0.651515E+06 0.341637E+08
     6161.00  0.105365E+04 0.648777E+05 0.531060E+06 0.321921E+08
     6211.00  0.928668E+03 0.635048E+05 0.428054E+06 0.302509E+08
     6261.00  0.815820E+03 0.619616E+05 0.340609E+06 0.283502E+08
     6311.00  0.714181E+03 0.602724E+05 0.266985E+06 0.264987E+08
     6361.00  0.622877E+03 0.584601E+05 0.205583E+06 0.247036E+08
     6411.00  0.541081E+03 0.565463E+05 0.154942E+06 0.229706E+08
     6461.00  0.468014E+03 0.545515E+05 0.113726E+06 0.213047E+08
     6511.00  0.402944E+03 0.524947E+05 0.807249E+05 0.197095E+08
     6561.00  0.345183E+03 0.503932E+05 0.548388E+05 0.181876E+08
     6611.00  0.294087E+03 0.482633E+05 0.350767E+05 0.167407E+08
     6661.00  0.249056E+03 0.461195E+05 0.205469E+05 0.153700E+08
     6711.00  0.209527E+03 0.439752E+05 0.104507E+05 0.140755E+08
     6761.00  0.174981E+03 0.418420E+05 0.407522E+04 0.128569E+08
     6811.00  0.144933E+03 0.397308E+05 0.787391E+03 0.117134E+08
     6861.00  0.118936E+03 0.376507E+05 0.271364E+02 0.106435E+08
     6911.00  0.965748E+02 0.356099E+05 0.130154E+04 0.964547E+07
     6961.00  0.774692E+02 0.336155E+05 0.417903E+04 0.871716E+07
     7011.00  0.612680E+02 0.316733E+05 0.828392E+04 0.785621E+07
     7061.00  0.476490E+02 0.297885E+05 0.132913E+05 0.706001E+07
     7111.00  0.363175E+02 0.279652E+05 0.189220E+05 0.632581E+07
     7161.00  0.270041E+02 0.262066E+05 0.249385E+05 0.565071E+07
     7211.00  0.194631E+02 0.245153E+05 0.311399E+05 0.503173E+07
     7261.00  0.134715E+02 0.228931E+05 0.373591E+05 0.446586E+07
     7311.00  0.882672E+01 0.213411E+05 0.434579E+05 0.395006E+07
     7361.00  0.534587E+01 0.198600E+05 0.493246E+05 0.348130E+07
     7411.00  0.286387E+01 0.184499E+05 0.548705E+05 0.305660E+07
     7511.00  0.318249E+00 0.158412E+05 0.647435E+05 0.232771E+07
     7611.00  0.180271E+00 0.135079E+05 0.727262E+05 0.174088E+07
     7711.00  0.164984E+01 0.114384E+05 0.786798E+05 0.127516E+07
     7811.00  0.410307E+01 0.961742E+04 0.826182E+05 0.911388E+06
     7911.00  0.706297E+01 0.802764E+04 0.846607E+05 0.632352E+06
     8011.00  0.101737E+02 0.665023E+04 0.849941E+05 0.422813E+06
     8111.00  0.131783E+02 0.546585E+04 0.838442E+05 0.269473E+06
     8211.00  0.158997E+02 0.445516E+04 0.814540E+05 0.160881E+06
     8311.00  0.182241E+02 0.359933E+04 0.780671E+05 0.873098E+05
     8411.00  0.200875E+02 0.288034E+04 0.739166E+05 0.406038E+05
     8511.00  0.214641E+02 0.228125E+04 0.692174E+05 0.140205E+05
     8611.00  0.223564E+02 0.178634E+04 0.641617E+05 0.206488E+04
     8711.00  0.227880E+02 0.138121E+04 0.589165E+05 0.329064E+03
     8811.00  0.227965E+02 0.105285E+04 0.536234E+05 0.533800E+04
     8911.00  0.224291E+02 0.789563E+03 0.483985E+05 0.144068E+05
     9011.00  0.217379E+02 0.580973E+03 0.433346E+05 0.255104E+05
     9111.00  0.207774E+02 0.417955E+03 0.385027E+05 0.371666E+05
     9211.00  0.196015E+02 0.292548E+03 0.339547E+05 0.483334E+05
     9311.00  0.182621E+02 0.197869E+03 0.297255E+05 0.583192E+05
     9411.00  0.168081E+02 0.128021E+03 0.258360E+05 0.667063E+05
     9511.00  0.152838E+02 0.779892E+02 0.222950E+05 0.732867E+05
     9611.00  0.137292E+02 0.435528E+02 0.191018E+05 0.780075E+05
     9711.00  0.121791E+02 0.211891E+02 0.162481E+05 0.809276E+05
     9811.00  0.106635E+02 0.798809E+01 0.137195E+05 0.821814E+05
     9911.00  0.920733E+01 0.157118E+01 0.114975E+05 0.819513E+05
    10011.00  0.783097E+01 0.169830E-01 0.956100E+04 0.804452E+05
    10111.00  0.655034E+01 0.179390E+01 0.788676E+04 0.778809E+05
    10211.00  0.537730E+01 0.569960E+01 0.645094E+04 0.744728E+05
    10311.00  0.431999E+01 0.108073E+02 0.522959E+04 0.704240E+05
    10411.00  0.338323E+01 0.164186E+02 0.419927E+04 0.659208E+05
    10511.00  0.256890E+01 0.220221E+02 0.333752E+04 0.611288E+05
    10611.00  0.187636E+01 0.272578E+02 0.262320E+04 0.561919E+05
    10711.00  0.130276E+01 0.318868E+02 0.203662E+04 0.512313E+05
    10811.00  0.843426E+00 0.357655E+02 0.155976E+04 0.463470E+05
    10911.00  0.492185E+00 0.388236E+02 0.117631E+04 0.416185E+05
    11011.00  0.241662E+00 0.410462E+02 0.871601E+03 0.371068E+05
    11111.00  0.835633E-01 0.424590E+02 0.632677E+03 0.328564E+05
    11211.00  0.893536E-02 0.431160E+02 0.448138E+03 0.288975E+05
    11311.00  0.838970E-02 0.430899E+02 0.308085E+03 0.252480E+05
    11411.00  0.723101E-01 0.424647E+02 0.203994E+03 0.219155E+05
    11511.00  0.191034E+00 0.413290E+02 0.128603E+03 0.188994E+05
    11611.00  0.355011E+00 0.397725E+02 0.757861E+02 0.161924E+05
    11711.00  0.554941E+00 0.378815E+02 0.404296E+02 0.137820E+05
    11811.00  0.781891E+00 0.357374E+02 0.183147E+02 0.116522E+05
    11911.00  0.102739E+01 0.334150E+02 0.600164E+01 0.978439E+04
    12011.00  0.128353E+01 0.309809E+02 0.723429E+00 0.815825E+04
    12111.00  0.154299E+01 0.284940E+02 0.287655E+00 0.675279E+04
    12211.00  0.179912E+01 0.260046E+02 0.298690E+01 0.554688E+04
    12311.00  0.204599E+01 0.235549E+02 0.751855E+01 0.451973E+04
    12411.00  0.227836E+01 0.211796E+02 0.129137E+02 0.365137E+04
    12511.00  0.249172E+01 0.189060E+02 0.184746E+02 0.292287E+04
    12611.00  0.268233E+01 0.167551E+02 0.237211E+02 0.231655E+04
    12711.00  0.284715E+01 0.147418E+02 0.283439E+02 0.181614E+04
    12811.00  0.298385E+01 0.128762E+02 0.321655E+02 0.140679E+04
    12911.00  0.309079E+01 0.111635E+02 0.351081E+02 0.107511E+04
    13011.00  0.316699E+01 0.960547E+01 0.371660E+02 0.809128E+03
    13111.00  0.321207E+01 0.820051E+01 0.383838E+02 0.598272E+03
    13211.00  0.322625E+01 0.694453E+01 0.388396E+02 0.433255E+03
    13311.00  0.321026E+01 0.583137E+01 0.386306E+02 0.306004E+03
    13411.00  0.316533E+01 0.485331E+01 0.378631E+02 0.209563E+03
    13511.00  0.309312E+01 0.400153E+01 0.366445E+02 0.137988E+03
    13611.00  0.299564E+01 0.326641E+01 0.350782E+02 0.862434E+02
    13711.00  0.287526E+01 0.263793E+01 0.332593E+02 0.501045E+02
    13811.00  0.273460E+01 0.210589E+01 0.312729E+02 0.260585E+02
    13911.00  0.257649E+01 0.166017E+01 0.291925E+02 0.112147E+02
    14011.00  0.240393E+01 0.129091E+01 0.270800E+02 0.322008E+01
    14111.00  0.222002E+01 0.988638E+00 0.249856E+02 0.181402E+00
    14211.00  0.202791E+01 0.744433E+00 0.229489E+02 0.595765E+00
    14311.00  0.183077E+01 0.549966E+00 0.210000E+02 0.328788E+01
    14411.00  0.163173E+01 0.397576E+00 0.191601E+02 0.735478E+01
    14511.00  0.143382E+01 0.280305E+00 0.174432E+02 0.121174E+02
    14611.00  0.123997E+01 0.191915E+00 0.158572E+02 0.170784E+02
    14711.00  0.105294E+01 0.126882E+00 0.144049E+02 0.218864E+02
    14811.00  0.875301E+00 0.803840E-01 0.130853E+02 0.263053E+02
    14911.00  0.709417E+00 0.482726E-01 0.118942E+02 0.301886E+02
    15011.00  0.557399E+00 0.270379E-01 0.108255E+02 0.334577E+02
    15111.00  0.421107E+00 0.137648E-01 0.987153E+01 0.360851E+02
    15211.00  0.302118E+00 0.608456E-02 0.902357E+01 0.380794E+02
    15311.00  0.201729E+00 0.212292E-02 0.827256E+01 0.394743E+02
    15411.00  0.120939E+00 0.446423E-03 0.760933E+01 0.403200E+02
    15511.00  0.604558E-01 0.752865E-05 0.702482E+01 0.406757E+02
    15611.00  0.206897E-01 0.904080E-04 0.651031E+01 0.406045E+02
    15711.00  0.176354E-02 0.258013E-03 0.605757E+01 0.401701E+02
    15811.00  0.351874E-02 0.301330E-03 0.565886E+01 0.394337E+02
    15911.00  0.255277E-01 0.191495E-03 0.530704E+01 0.384522E+02
    16011.00  0.671083E-01 0.353169E-04 0.499553E+01 0.372773E+02
    16111.00  0.127341E+00 0.346494E-04 0.471832E+01 0.359549E+02
    16211.00  0.205089E+00 0.449926E-03 0.446992E+01 0.345246E+02
    16311.00  0.299018E+00 0.156808E-02 0.424541E+01 0.330204E+02
    16411.00  0.407623E+00 0.367499E-02 0.404030E+01 0.314707E+02
    16511.00  0.529246E+00 0.703243E-02 0.385060E+01 0.298986E+02
    16611.00  0.662109E+00 0.118596E-01 0.367274E+01 0.283229E+02
    16711.00  0.804337E+00 0.183188E-01 0.350358E+01 0.267582E+02
    16811.00  0.953977E+00 0.265059E-01 0.334037E+01 0.252157E+02
    16911.00  0.110904E+01 0.364439E-01 0.318076E+01 0.237037E+02
    17011.00  0.126751E+01 0.480808E-01 0.302279E+01 0.222282E+02
    17111.00  0.142737E+01 0.612906E-01 0.286486E+01 0.207930E+02
    17211.00  0.158665E+01 0.758774E-01 0.270577E+01 0.194007E+02
    17311.00  0.174342E+01 0.915818E-01 0.254467E+01 0.180527E+02
    17411.00  0.189582E+01 0.108089E+00 0.238106E+01 0.167493E+02
    17511.00  0.204209E+01 0.125042E+00 0.221482E+01 0.154907E+02
    17611.00  0.218057E+01 0.142048E+00 0.204613E+01 0.142766E+02
    17711.00  0.230974E+01 0.158695E+00 0.187550E+01 0.131066E+02
    17811.00  0.242822E+01 0.174567E+00 0.170373E+01 0.119803E+02
    17911.00  0.253478E+01 0.189251E+00 0.153188E+01 0.108976E+02
    18011.00  0.262834E+01 0.202352E+00 0.136125E+01 0.985851E+01
    18111.00  0.270800E+01 0.213510E+00 0.119330E+01 0.886341E+01
    18211.00  0.277305E+01 0.222404E+00 0.102968E+01 0.791302E+01
    18311.00  0.282294E+01 0.228766E+00 0.872119E+00 0.700834E+01
    18411.00  0.285730E+01 0.232389E+00 0.722425E+00 0.615070E+01
    18511.00  0.287596E+01 0.233134E+00 0.582417E+00 0.534172E+01
    18611.00  0.287891E+01 0.230933E+00 0.453881E+00 0.458320E+01
    18711.00  0.286629E+01 0.225796E+00 0.338532E+00 0.387707E+01
    18811.00  0.283846E+01 0.217809E+00 0.237968E+00 0.322537E+01
    18911.00  0.279589E+01 0.207135E+00 0.153629E+00 0.263005E+01
    19011.00  0.273922E+01 0.194010E+00 0.867651E-01 0.209298E+01
    19111.00  0.266921E+01 0.178742E+00 0.384011E-01 0.161580E+01
    19311.00  0.249288E+01 0.143316E+00 0.118562E-04 0.845988E+00
    19511.00  0.227533E+01 0.104450E+00 0.413694E-01 0.325918E+00
    19711.00  0.202632E+01 0.663401E-01 0.160769E+00 0.521224E-01
    19911.00  0.175648E+01 0.334403E-01 0.351921E+00 0.107654E-01
    20111.00  0.147681E+01 0.100870E-01 0.604333E+00 0.177073E+00
    20311.00  0.119827E+01 0.138392E-03 0.904007E+00 0.515908E+00
    20511.00  0.931281E+00 0.664753E-02 0.123436E+01 0.983481E+00
    20711.00  0.685364E+00 0.316004E-01 0.157728E+01 0.153003E+01
    20911.00  0.468823E+00 0.757369E-01 0.191430E+01 0.210322E+01
    21111.00  0.288466E+00 0.138466E+00 0.222764E+01 0.265192E+01
    21311.00  0.149428E+00 0.217883E+00 0.250129E+01 0.312992E+01
    21511.00  0.550515E-01 0.310880E+00 0.272175E+01 0.349929E+01
    21711.00  0.685399E-02 0.413343E+00 0.287879E+01 0.373297E+01
    21911.00  0.456016E-02 0.520425E+00 0.296580E+01 0.381642E+01
    22111.00  0.462013E-01 0.626847E+00 0.297996E+01 0.374805E+01
    22311.00  0.128272E+00 0.727254E+00 0.292226E+01 0.353865E+01
    22511.00  0.245935E+00 0.816537E+00 0.279721E+01 0.320965E+01
    22711.00  0.393262E+00 0.890162E+00 0.261243E+01 0.279063E+01
    22911.00  0.563504E+00 0.944432E+00 0.237808E+01 0.231623E+01
    23111.00  0.749370E+00 0.976702E+00 0.210625E+01 0.182284E+01
    23311.00  0.943319E+00 0.985518E+00 0.181021E+01 0.134538E+01
    23511.00  0.113783E+01 0.970669E+00 0.150370E+01 0.914405E+00
    23711.00  0.132569E+01 0.933183E+00 0.120026E+01 0.553917E+00
    23911.00  0.150019E+01 0.875214E+00 0.912532E+00 0.279855E+00
    24111.00  0.165538E+01 0.799909E+00 0.651793E+00 0.995056E-01
    24311.00  0.178620E+01 0.711170E+00 0.427418E+00 0.117087E-01
    24511.00  0.188865E+01 0.613433E+00 0.246589E+00 0.781808E-02
    24711.00  0.195983E+01 0.511389E+00 0.114068E+00 0.732360E-01
    24911.00  0.199803E+01 0.409724E+00 0.321156E-01 0.189334E+00
    25111.00  0.200272E+01 0.312861E+00 0.523003E-03 0.335537E+00
    25311.00  0.197448E+01 0.224744E+00 0.167625E-01 0.491362E+00
    25511.00  0.191499E+01 0.148648E+00 0.762321E-01 0.638230E+00
    25711.00  0.182685E+01 0.870466E-01 0.172583E+00 0.760885E+00
    25911.00  0.171351E+01 0.415292E-01 0.298113E+00 0.848370E+00
    26111.00  0.157910E+01 0.127740E-01 0.444192E+00 0.894457E+00
    26311.00  0.142826E+01 0.571829E-03 0.601724E+00 0.897632E+00
    26511.00  0.126595E+01 0.389803E-02 0.761584E+00 0.860595E+00
    26711.00  0.109730E+01 0.210233E-01 0.915064E+00 0.789477E+00
    26911.00  0.927417E+00 0.496552E-01 0.105423E+01 0.692785E+00
         IE==>      4            5
        1.00  0.000000E+00 0.000000E+00
        2.00  0.000000E+00 0.000000E+00
        3.00  0.000000E+00 0.000000E+00
        4.00  0.000000E+00 0.000000E+00
        5.00  0.000000E+00 0.000000E+00
        6.00  0.000000E+00 0.000000E+00
        7.00  0.000000E+00 0.000000E+00
        8.00  0.000000E+00 0.000000E+00
        9.00  0.000000E+00 0.000000E+00
       10.00  0.000000E+00 0.514737E-37
       11.00  0.000000E+00 0.475667E-36
       12.00  0.000000E+00 0.361706E-35
       13.00  0.286365E-37 0.233516E-34
       14.00  0.162512E-36 0.131141E-33
       15.00  0.817797E-36 0.653111E-33
       16.00  0.370636E-35 0.292956E-32
       17.00  0.153216E-34 0.119868E-31
       18.00  0.583833E-34 0.452122E-31
       19.00  0.206883E-33 0.158594E-30
       20.00  0.686834E-33 0.521239E-30
       21.00  0.214997E-32 0.161535E-29
       22.00  0.638038E-32 0.474630E-29
       23.00  0.180365E-31 0.132850E-28
       24.00  0.487697E-31 0.355699E-28
       25.00  0.126594E-30 0.914316E-28
       26.00  0.316473E-30 0.226356E-27
       27.00  0.764102E-30 0.541260E-27
       28.00  0.178632E-29 0.125324E-26
       29.00  0.405266E-29 0.281618E-26
       30.00  0.894090E-29 0.615417E-26
       31.00  0.192166E-28 0.131026E-25
       32.00  0.403040E-28 0.272233E-25
       33.00  0.826131E-28 0.552811E-25
       34.00  0.165720E-27 0.109865E-24
       35.00  0.325739E-27 0.213961E-24
       36.00  0.628104E-27 0.408786E-24
       37.00  0.118937E-26 0.767011E-24
       38.00  0.221383E-26 0.141472E-23
       39.00  0.405419E-26 0.256740E-23
       40.00  0.731059E-26 0.458801E-23
       42.00  0.227624E-25 0.140319E-22
       44.00  0.671925E-25 0.406931E-22
       46.00  0.188938E-24 0.112435E-21
       48.00  0.508175E-24 0.297198E-21
       50.00  0.131213E-23 0.754288E-21
       52.00  0.326291E-23 0.184400E-20
       54.00  0.783663E-23 0.435464E-20
       56.00  0.182242E-22 0.995877E-20
       58.00  0.411291E-22 0.221057E-19
       60.00  0.902635E-22 0.477235E-19
       62.00  0.192990E-21 0.100388E-18
       64.00  0.402658E-21 0.206098E-18
       66.00  0.821056E-21 0.413579E-18
       68.00  0.163847E-20 0.812332E-18
       70.00  0.320389E-20 0.156365E-17
       72.00  0.614592E-20 0.295305E-17
       74.00  0.115777E-19 0.547754E-17
       76.00  0.214391E-19 0.998855E-17
       78.00  0.390594E-19 0.179228E-16
       80.00  0.700705E-19 0.316705E-16
       82.00  0.123871E-18 0.551540E-16
       84.00  0.215940E-18 0.947283E-16
       86.00  0.371461E-18 0.160564E-15
       88.00  0.630922E-18 0.268749E-15
       90.00  0.105869E-17 0.444449E-15
       92.00  0.175599E-17 0.726618E-15
       94.00  0.288043E-17 0.117494E-14
       96.00  0.467491E-17 0.187997E-14
       98.00  0.751038E-17 0.297785E-14
      100.00  0.119482E-16 0.467143E-14
      102.00  0.188307E-16 0.726041E-14
      104.00  0.294111E-16 0.111839E-13
      106.00  0.455391E-16 0.170804E-13
      108.00  0.699246E-16 0.258709E-13
      110.00  0.106507E-15 0.388750E-13
      112.00  0.160976E-15 0.579695E-13
      114.00  0.241488E-15 0.858060E-13
      116.00  0.359660E-15 0.126106E-12
      118.00  0.531937E-15 0.184061E-12
      122.00  0.114054E-14 0.384449E-12
      126.00  0.238456E-14 0.783243E-12
      130.00  0.486889E-14 0.155889E-11
      134.00  0.972303E-14 0.303538E-11
      138.00  0.190148E-13 0.578969E-11
      142.00  0.364605E-13 0.108308E-10
      146.00  0.686233E-13 0.198929E-10
      150.00  0.126905E-12 0.359095E-10
      154.00  0.230806E-12 0.637666E-10
      158.00  0.413189E-12 0.111485E-09
      162.00  0.728667E-12 0.192054E-09
      166.00  0.126679E-11 0.326232E-09
      170.00  0.217256E-11 0.546788E-09
      174.00  0.367794E-11 0.904841E-09
      178.00  0.614981E-11 0.147925E-08
      182.00  0.101621E-10 0.239037E-08
      186.00  0.166033E-10 0.382002E-08
      190.00  0.268352E-10 0.604018E-08
      194.00  0.429253E-10 0.945398E-08
      198.00  0.679834E-10 0.146535E-07
      202.00  0.106647E-09 0.225010E-07
      206.00  0.165772E-09 0.342416E-07
      210.00  0.255415E-09 0.516597E-07
      214.00  0.390208E-09 0.772925E-07
      218.00  0.591289E-09 0.114722E-06
      222.00  0.888971E-09 0.168969E-06
      226.00  0.132643E-08 0.247025E-06
      230.00  0.196473E-08 0.358561E-06
      234.00  0.288972E-08 0.516872E-06
      238.00  0.422134E-08 0.740121E-06
      242.00  0.612608E-08 0.105298E-05
      246.00  0.883381E-08 0.148878E-05
      250.00  0.126601E-07 0.209227E-05
      254.00  0.180357E-07 0.292326E-05
      258.00  0.255458E-07 0.406127E-05
      262.00  0.359810E-07 0.561145E-05
      266.00  0.504047E-07 0.771225E-05
      270.00  0.702397E-07 0.105451E-04
      274.00  0.973817E-07 0.143467E-04
      282.00  0.184448E-06 0.261756E-04
      290.00  0.342883E-06 0.468916E-04
      298.00  0.626242E-06 0.825621E-04
      306.00  0.112479E-05 0.143007E-03
      314.00  0.198849E-05 0.243893E-03
      322.00  0.346294E-05 0.409877E-03
      330.00  0.594521E-05 0.679262E-03
      338.00  0.100692E-04 0.111082E-02
      346.00  0.168347E-04 0.179370E-02
      354.00  0.278012E-04 0.286160E-02
      362.00  0.453751E-04 0.451293E-02
      370.00  0.732317E-04 0.703922E-02
      378.00  0.116930E-03 0.108646E-01
      386.00  0.184798E-03 0.166006E-01
      394.00  0.289205E-03 0.251208E-01
      402.00  0.448364E-03 0.376630E-01
      410.00  0.688875E-03 0.559667E-01
      418.00  0.104930E-02 0.824576E-01
      426.00  0.158510E-02 0.120493E+00
      434.00  0.237553E-02 0.174686E+00
      442.00  0.353299E-02 0.251331E+00
      450.00  0.521598E-02 0.358959E+00
      458.00  0.764651E-02 0.509059E+00
      466.00  0.111339E-01 0.717011E+00
      474.00  0.161063E-01 0.100328E+01
      482.00  0.231540E-01 0.139492E+01
      490.00  0.330856E-01 0.192753E+01
      498.00  0.470042E-01 0.264767E+01
      506.00  0.664073E-01 0.361592E+01
      514.00  0.933199E-01 0.491074E+01
      522.00  0.130468E+00 0.663315E+01
      530.00  0.181510E+00 0.891272E+01
      538.00  0.251334E+00 0.119147E+02
      546.00  0.346453E+00 0.158490E+02
      554.00  0.475523E+00 0.209811E+02
      562.00  0.650011E+00 0.276447E+02
      570.00  0.885081E+00 0.362585E+02
      578.00  0.120075E+01 0.473446E+02
      586.00  0.162340E+01 0.615517E+02
      596.00  0.235609E+01 0.849387E+02
      606.00  0.340401E+01 0.116454E+03
      616.00  0.489836E+01 0.158652E+03
      626.00  0.702484E+01 0.214799E+03
      636.00  0.100473E+02 0.289033E+03
      646.00  0.143436E+02 0.386552E+03
      656.00  0.204600E+02 0.513812E+03
      666.00  0.291984E+02 0.678713E+03
      676.00  0.417596E+02 0.890746E+03
      686.00  0.599946E+02 0.116097E+04
      696.00  0.868684E+02 0.150164E+04
      706.00  0.127392E+03 0.192494E+04
      716.00  0.190684E+03 0.243971E+04
      726.00  0.295158E+03 0.304291E+04
      736.00  0.484055E+03 0.369619E+04
      746.00  0.885573E+03 0.425159E+04
      756.00  0.207331E+04 0.414854E+04
      766.00  0.113292E+05 0.820307E+03
      776.00  0.234790E+05 0.638246E+05
      786.00  0.899518E+03 0.288461E+05
      796.00  0.720337E+02 0.291821E+05
      806.00  0.494944E+01 0.333098E+05
      816.00  0.970099E+02 0.395482E+05
      826.00  0.268496E+03 0.477388E+05
      836.00  0.511257E+03 0.580696E+05
      846.00  0.835916E+03 0.708851E+05
      856.00  0.126192E+04 0.866447E+05
      866.00  0.181564E+04 0.105918E+06
      876.00  0.253075E+04 0.129395E+06
      886.00  0.344931E+04 0.157898E+06
      896.00  0.462355E+04 0.192409E+06
      906.00  0.611798E+04 0.234086E+06
      916.00  0.801205E+04 0.284298E+06
      926.00  0.104034E+05 0.344660E+06
      936.00  0.134115E+05 0.417065E+06
      946.00  0.171829E+05 0.503736E+06
      956.00  0.218959E+05 0.607276E+06
      966.00  0.277680E+05 0.730729E+06
      976.00  0.350638E+05 0.877644E+06
      986.00  0.441042E+05 0.105216E+07
      996.00  0.552782E+05 0.125909E+07
     1006.00  0.690562E+05 0.150404E+07
     1016.00  0.860068E+05 0.179348E+07
     1026.00  0.106816E+06 0.213494E+07
     1036.00  0.132309E+06 0.253713E+07
     1046.00  0.163480E+06 0.301009E+07
     1056.00  0.201523E+06 0.356546E+07
     1066.00  0.247873E+06 0.421661E+07
     1076.00  0.304249E+06 0.497898E+07
     1086.00  0.372709E+06 0.587032E+07
     1096.00  0.455719E+06 0.691103E+07
     1106.00  0.556224E+06 0.812456E+07
     1116.00  0.677747E+06 0.953779E+07
     1126.00  0.824493E+06 0.111816E+08
     1136.00  0.100148E+07 0.130913E+08
     1146.00  0.121468E+07 0.153073E+08
     1156.00  0.147125E+07 0.178760E+08
     1166.00  0.177966E+07 0.208503E+08
     1176.00  0.215004E+07 0.242906E+08
     1186.00  0.259443E+07 0.282661E+08
     1196.00  0.312719E+07 0.328557E+08
     1206.00  0.376537E+07 0.381495E+08
     1216.00  0.452931E+07 0.442504E+08
     1226.00  0.544319E+07 0.512755E+08
     1236.00  0.653580E+07 0.593589E+08
     1246.00  0.784141E+07 0.686533E+08
     1256.00  0.940086E+07 0.793327E+08
     1266.00  0.112628E+08 0.915961E+08
     1276.00  0.134851E+08 0.105670E+09
     1286.00  0.161371E+08 0.121814E+09
     1296.00  0.193012E+08 0.140324E+09
     1306.00  0.230760E+08 0.161538E+09
     1316.00  0.275794E+08 0.185843E+09
     1326.00  0.329523E+08 0.213681E+09
     1336.00  0.393638E+08 0.245558E+09
     1346.00  0.470164E+08 0.282056E+09
     1356.00  0.561538E+08 0.323842E+09
     1366.00  0.670687E+08 0.371681E+09
     1376.00  0.801143E+08 0.426457E+09
     1386.00  0.957169E+08 0.489186E+09
     1396.00  0.114393E+09 0.561044E+09
     1406.00  0.136767E+09 0.643392E+09
     1416.00  0.163601E+09 0.737807E+09
     1426.00  0.195822E+09 0.846128E+09
     1436.00  0.234565E+09 0.970497E+09
     1446.00  0.281221E+09 0.111342E+10
     1456.00  0.337505E+09 0.127786E+10
     1466.00  0.405536E+09 0.146728E+10
     1476.00  0.487943E+09 0.168580E+10
     1486.00  0.588009E+09 0.193833E+10
     1496.00  0.709845E+09 0.223074E+10
     1506.00  0.858637E+09 0.257010E+10
     1516.00  0.104096E+10 0.296495E+10
     1526.00  0.126522E+10 0.342574E+10
     1536.00  0.154222E+10 0.396532E+10
     1546.00  0.188597E+10 0.459960E+10
     1556.00  0.231484E+10 0.534852E+10
     1566.00  0.285307E+10 0.623734E+10
     1576.00  0.353312E+10 0.729836E+10
     1586.00  0.439889E+10 0.857354E+10
     1596.00  0.551071E+10 0.101181E+11
     1606.00  0.695271E+10 0.120060E+11
     1616.00  0.884435E+10 0.143380E+11
     1626.00  0.113588E+11 0.172546E+11
     1636.00  0.147532E+11 0.209563E+11
     1646.00  0.194194E+11 0.257371E+11
     1651.10  0.224749E+11 0.287259E+11
     1651.60  0.228055E+11 0.290438E+11
     1652.10  0.231420E+11 0.293663E+11
     1652.60  0.234845E+11 0.296935E+11
     1653.11  0.238332E+11 0.300255E+11
     1653.61  0.241881E+11 0.303625E+11
     1654.11  0.245495E+11 0.307044E+11
     1654.61  0.249174E+11 0.310515E+11
     1655.11  0.252921E+11 0.314038E+11
     1655.61  0.256736E+11 0.317614E+11
     1656.00  0.259743E+11 0.320424E+11
     1656.11  0.260621E+11 0.321244E+11
     1656.61  0.264578E+11 0.324929E+11
     1657.12  0.268609E+11 0.328671E+11
     1657.62  0.272714E+11 0.332470E+11
     1658.12  0.276896E+11 0.336328E+11
     1658.62  0.281157E+11 0.340246E+11
     1659.12  0.285498E+11 0.344225E+11
     1659.62  0.289921E+11 0.348266E+11
     1660.12  0.294428E+11 0.352371E+11
     1660.62  0.299020E+11 0.356540E+11
     1661.13  0.303701E+11 0.360776E+11
     1661.63  0.308472E+11 0.365080E+11
     1662.13  0.313335E+11 0.369452E+11
     1662.63  0.318292E+11 0.373896E+11
     1663.13  0.323346E+11 0.378411E+11
     1663.63  0.328498E+11 0.382999E+11
     1664.13  0.333752E+11 0.387663E+11
     1664.63  0.339109E+11 0.392404E+11
     1665.14  0.344572E+11 0.397223E+11
     1665.64  0.350145E+11 0.402122E+11
     1666.00  0.354257E+11 0.405727E+11
     1666.14  0.355828E+11 0.407103E+11
     1666.64  0.361626E+11 0.412168E+11
     1667.14  0.367540E+11 0.417318E+11
     1667.64  0.373574E+11 0.422556E+11
     1668.14  0.379731E+11 0.427883E+11
     1668.64  0.386014E+11 0.433301E+11
     1669.15  0.392426E+11 0.438813E+11
     1669.65  0.398971E+11 0.444421E+11
     1670.15  0.405650E+11 0.450126E+11
     1670.65  0.412469E+11 0.455932E+11
     1671.15  0.419431E+11 0.461839E+11
     1671.65  0.426539E+11 0.467852E+11
     1672.15  0.433797E+11 0.473972E+11
     1672.65  0.441209E+11 0.480201E+11
     1673.16  0.448779E+11 0.486543E+11
     1673.66  0.456512E+11 0.492999E+11
     1674.16  0.464410E+11 0.499574E+11
     1674.66  0.472480E+11 0.506269E+11
     1675.16  0.480726E+11 0.513087E+11
     1675.66  0.489151E+11 0.520032E+11
     1676.00  0.494947E+11 0.524797E+11
     1676.16  0.497762E+11 0.527107E+11
     1676.66  0.506562E+11 0.534314E+11
     1677.17  0.515558E+11 0.541657E+11
     1677.67  0.524755E+11 0.549140E+11
     1678.17  0.534157E+11 0.556766E+11
     1678.67  0.543772E+11 0.564538E+11
     1679.17  0.553605E+11 0.572461E+11
     1679.67  0.563661E+11 0.580537E+11
     1680.17  0.573947E+11 0.588772E+11
     1680.67  0.584471E+11 0.597169E+11
     1681.18  0.595237E+11 0.605732E+11
     1681.68  0.606255E+11 0.614466E+11
     1682.18  0.617530E+11 0.623375E+11
     1682.68  0.629070E+11 0.632464E+11
     1683.18  0.640883E+11 0.641738E+11
     1683.68  0.652977E+11 0.651201E+11
     1684.18  0.665360E+11 0.660859E+11
     1684.68  0.678040E+11 0.670716E+11
     1685.19  0.691028E+11 0.680780E+11
     1685.69  0.704331E+11 0.691054E+11
     1686.00  0.712817E+11 0.697590E+11
     1686.19  0.717960E+11 0.701545E+11
     1686.69  0.731924E+11 0.712259E+11
     1687.19  0.746234E+11 0.723203E+11
     1687.69  0.760899E+11 0.734381E+11
     1688.19  0.775932E+11 0.745803E+11
     1688.69  0.791343E+11 0.757473E+11
     1689.20  0.807145E+11 0.769400E+11
     1689.70  0.823349E+11 0.781591E+11
     1690.20  0.839970E+11 0.794053E+11
     1690.70  0.857018E+11 0.806795E+11
     1691.20  0.874509E+11 0.819824E+11
     1691.70  0.892457E+11 0.833150E+11
     1692.20  0.910877E+11 0.846780E+11
     1692.70  0.929783E+11 0.860725E+11
     1693.21  0.949192E+11 0.874994E+11
     1693.71  0.969121E+11 0.889597E+11
     1694.21  0.989587E+11 0.904543E+11
     1694.71  0.101061E+12 0.919844E+11
     1695.21  0.103220E+12 0.935511E+11
     1695.71  0.105439E+12 0.951554E+11
     1696.00  0.106744E+12 0.960963E+11
     1696.21  0.107719E+12 0.967986E+11
     1696.71  0.110063E+12 0.984820E+11
     1697.22  0.112472E+12 0.100207E+12
     1697.72  0.114949E+12 0.101974E+12
     1698.22  0.117496E+12 0.103786E+12
     1698.72  0.120117E+12 0.105643E+12
     1699.22  0.122812E+12 0.107547E+12
     1699.72  0.125586E+12 0.109500E+12
     1700.22  0.128441E+12 0.111504E+12
     1700.72  0.131379E+12 0.113559E+12
     1701.23  0.134404E+12 0.115667E+12
     1701.73  0.137520E+12 0.117832E+12
     1702.23  0.140728E+12 0.120053E+12
     1702.73  0.144034E+12 0.122334E+12
     1703.23  0.147440E+12 0.124677E+12
     1703.73  0.150951E+12 0.127083E+12
     1704.23  0.154569E+12 0.129555E+12
     1704.73  0.158300E+12 0.132095E+12
     1705.24  0.162148E+12 0.134706E+12
     1705.74  0.166117E+12 0.137390E+12
     1706.00  0.168253E+12 0.138830E+12
     1706.24  0.170212E+12 0.140149E+12
     1706.74  0.174438E+12 0.142987E+12
     1707.24  0.178800E+12 0.145907E+12
     1707.74  0.183303E+12 0.148911E+12
     1708.24  0.187954E+12 0.152003E+12
     1708.74  0.192757E+12 0.155185E+12
     1709.25  0.197720E+12 0.158462E+12
     1709.75  0.202849E+12 0.161836E+12
     1710.25  0.208150E+12 0.165312E+12
     1710.75  0.213631E+12 0.168894E+12
     1711.25  0.219299E+12 0.172585E+12
     1711.75  0.225163E+12 0.176390E+12
     1712.25  0.231229E+12 0.180313E+12
     1712.75  0.237508E+12 0.184359E+12
     1713.26  0.244007E+12 0.188533E+12
     1713.76  0.250737E+12 0.192839E+12
     1714.26  0.257708E+12 0.197284E+12
     1714.76  0.264929E+12 0.201873E+12
     1715.26  0.272412E+12 0.206611E+12
     1715.76  0.280168E+12 0.211504E+12
     1716.00  0.283955E+12 0.213888E+12
     1716.26  0.288209E+12 0.216560E+12
     1716.76  0.296548E+12 0.221784E+12
     1717.27  0.305199E+12 0.227183E+12
     1717.77  0.314175E+12 0.232766E+12
     1718.27  0.323490E+12 0.238539E+12
     1718.77  0.333161E+12 0.244510E+12
     1719.27  0.343203E+12 0.250688E+12
     1719.77  0.353633E+12 0.257081E+12
     1720.27  0.364469E+12 0.263698E+12
     1720.77  0.375730E+12 0.270549E+12
     1721.28  0.387434E+12 0.277644E+12
     1721.78  0.399603E+12 0.284992E+12
     1722.28  0.412258E+12 0.292606E+12
     1722.78  0.425420E+12 0.300494E+12
     1723.28  0.439115E+12 0.308670E+12
     1723.78  0.453365E+12 0.317146E+12
     1724.28  0.468197E+12 0.325933E+12
     1724.78  0.483637E+12 0.335044E+12
     1725.29  0.499714E+12 0.344494E+12
     1725.79  0.516456E+12 0.354296E+12
     1726.00  0.523789E+12 0.358577E+12
     1726.29  0.533894E+12 0.364465E+12
     1726.79  0.552058E+12 0.375014E+12
     1727.29  0.570982E+12 0.385959E+12
     1727.79  0.590698E+12 0.397316E+12
     1728.29  0.611243E+12 0.409100E+12
     1728.79  0.632651E+12 0.421328E+12
     1729.30  0.654958E+12 0.434015E+12
     1729.80  0.678204E+12 0.447178E+12
     1730.30  0.702425E+12 0.460833E+12
     1730.80  0.727660E+12 0.474997E+12
     1731.30  0.753949E+12 0.489684E+12
     1731.80  0.781329E+12 0.504912E+12
     1732.30  0.809841E+12 0.520693E+12
     1732.80  0.839520E+12 0.537042E+12
     1733.31  0.870405E+12 0.553973E+12
     1733.81  0.902530E+12 0.571495E+12
     1734.31  0.935927E+12 0.589618E+12
     1734.81  0.970627E+12 0.608350E+12
     1735.31  0.100665E+13 0.627693E+12
     1735.81  0.104403E+13 0.647650E+12
     1736.00  0.105842E+13 0.655302E+12
     1736.31  0.108277E+13 0.668218E+12
     1736.81  0.112288E+13 0.689388E+12
     1737.32  0.116436E+13 0.711148E+12
     1737.82  0.120720E+13 0.733480E+12
     1738.32  0.125138E+13 0.756359E+12
     1738.82  0.129686E+13 0.779751E+12
     1739.32  0.134359E+13 0.803616E+12
     1739.82  0.139151E+13 0.827903E+12
     1740.32  0.144053E+13 0.852550E+12
     1740.82  0.149054E+13 0.877487E+12
     1741.33  0.154141E+13 0.902629E+12
     1741.83  0.159300E+13 0.927882E+12
     1742.33  0.164512E+13 0.953136E+12
     1742.83  0.169757E+13 0.978271E+12
     1743.33  0.175012E+13 0.100315E+13
     1743.83  0.180251E+13 0.102763E+13
     1744.33  0.185445E+13 0.105155E+13
     1744.83  0.190565E+13 0.107474E+13
     1745.34  0.195576E+13 0.109703E+13
     1745.84  0.200443E+13 0.111823E+13
     1746.00  0.201990E+13 0.112486E+13
     1746.34  0.205131E+13 0.113814E+13
     1746.84  0.209601E+13 0.115660E+13
     1747.34  0.213817E+13 0.117340E+13
     1747.84  0.217741E+13 0.118837E+13
     1748.34  0.221338E+13 0.120134E+13
     1748.84  0.224572E+13 0.121216E+13
     1749.35  0.227415E+13 0.122071E+13
     1749.85  0.229838E+13 0.122686E+13
     1750.35  0.231818E+13 0.123053E+13
     1750.85  0.233338E+13 0.123168E+13
     1751.35  0.234385E+13 0.123027E+13
     1751.85  0.234953E+13 0.122632E+13
     1752.35  0.235040E+13 0.121986E+13
     1752.85  0.234651E+13 0.121096E+13
     1753.36  0.233798E+13 0.119971E+13
     1753.86  0.232496E+13 0.118625E+13
     1754.36  0.230767E+13 0.117071E+13
     1754.86  0.228634E+13 0.115325E+13
     1755.36  0.226127E+13 0.113406E+13
     1755.86  0.223277E+13 0.111332E+13
     1756.00  0.222435E+13 0.110736E+13
     1756.36  0.220115E+13 0.109122E+13
     1756.86  0.216677E+13 0.106796E+13
     1757.37  0.212996E+13 0.104372E+13
     1757.87  0.209107E+13 0.101870E+13
     1758.37  0.205044E+13 0.993069E+12
     1758.87  0.200838E+13 0.967000E+12
     1759.37  0.196521E+13 0.940651E+12
     1759.87  0.192120E+13 0.914166E+12
     1760.37  0.187663E+13 0.887677E+12
     1760.87  0.183174E+13 0.861303E+12
     1761.38  0.178675E+13 0.835148E+12
     1761.88  0.174185E+13 0.809303E+12
     1762.38  0.169722E+13 0.783847E+12
     1762.88  0.165302E+13 0.758848E+12
     1763.38  0.160937E+13 0.734360E+12
     1763.88  0.156639E+13 0.710430E+12
     1764.38  0.152418E+13 0.687092E+12
     1764.88  0.148281E+13 0.664376E+12
     1765.39  0.144234E+13 0.642302E+12
     1765.89  0.140282E+13 0.620882E+12
     1766.00  0.139405E+13 0.616143E+12
     1766.39  0.136430E+13 0.600125E+12
     1766.89  0.132680E+13 0.580034E+12
     1767.39  0.129033E+13 0.560607E+12
     1767.89  0.125491E+13 0.541839E+12
     1768.39  0.122055E+13 0.523722E+12
     1768.89  0.118722E+13 0.506245E+12
     1769.40  0.115494E+13 0.489396E+12
     1769.90  0.112368E+13 0.473160E+12
     1770.40  0.109343E+13 0.457522E+12
     1770.90  0.106417E+13 0.442464E+12
     1771.40  0.103588E+13 0.427970E+12
     1771.90  0.100854E+13 0.414022E+12
     1772.40  0.982116E+12 0.400601E+12
     1772.90  0.956589E+12 0.387689E+12
     1773.41  0.931932E+12 0.375269E+12
     1773.91  0.908117E+12 0.363321E+12
     1774.41  0.885118E+12 0.351828E+12
     1774.91  0.862909E+12 0.340773E+12
     1775.41  0.841461E+12 0.330138E+12
     1775.91  0.820749E+12 0.319907E+12
     1776.00  0.817188E+12 0.318152E+12
     1776.41  0.800746E+12 0.310064E+12
     1776.91  0.781428E+12 0.300592E+12
     1777.42  0.762769E+12 0.291477E+12
     1777.92  0.744744E+12 0.282703E+12
     1778.42  0.727331E+12 0.274257E+12
     1778.92  0.710505E+12 0.266125E+12
     1779.42  0.694245E+12 0.258293E+12
     1779.92  0.678530E+12 0.250750E+12
     1780.42  0.663337E+12 0.243482E+12
     1780.92  0.648647E+12 0.236479E+12
     1781.43  0.634442E+12 0.229730E+12
     1781.93  0.620701E+12 0.223222E+12
     1782.43  0.607408E+12 0.216947E+12
     1782.93  0.594544E+12 0.210895E+12
     1783.43  0.582093E+12 0.205057E+12
     1783.93  0.570040E+12 0.199422E+12
     1784.43  0.558369E+12 0.193984E+12
     1784.93  0.547065E+12 0.188733E+12
     1785.44  0.536114E+12 0.183663E+12
     1785.94  0.525503E+12 0.178765E+12
     1786.00  0.524195E+12 0.178162E+12
     1786.44  0.515219E+12 0.174032E+12
     1786.94  0.505249E+12 0.169459E+12
     1787.44  0.495582E+12 0.165037E+12
     1787.94  0.486206E+12 0.160762E+12
     1788.44  0.477110E+12 0.156627E+12
     1788.94  0.468284E+12 0.152627E+12
     1789.45  0.459718E+12 0.148757E+12
     1789.95  0.451402E+12 0.145010E+12
     1790.45  0.443327E+12 0.141383E+12
     1790.95  0.435484E+12 0.137870E+12
     1791.45  0.427865E+12 0.134468E+12
     1791.95  0.420461E+12 0.131172E+12
     1792.45  0.413265E+12 0.127977E+12
     1792.95  0.406270E+12 0.124881E+12
     1793.46  0.399468E+12 0.121879E+12
     1793.96  0.392853E+12 0.118967E+12
     1794.46  0.386417E+12 0.116143E+12
     1794.96  0.380156E+12 0.113403E+12
     1795.46  0.374062E+12 0.110743E+12
     1795.96  0.368130E+12 0.108162E+12
     1796.00  0.367688E+12 0.107970E+12
     1796.46  0.362354E+12 0.105656E+12
     1796.96  0.356729E+12 0.103222E+12
     1797.47  0.351250E+12 0.100858E+12
     1797.97  0.345912E+12 0.985617E+11
     1798.47  0.340711E+12 0.963299E+11
     1798.97  0.335641E+12 0.941607E+11
     1799.47  0.330699E+12 0.920520E+11
     1799.97  0.325880E+12 0.900015E+11
     1800.47  0.321181E+12 0.880073E+11
     1800.97  0.316596E+12 0.860674E+11
     1801.48  0.312124E+12 0.841801E+11
     1801.98  0.307760E+12 0.823434E+11
     1802.48  0.303500E+12 0.805557E+11
     1802.98  0.299342E+12 0.788154E+11
     1803.48  0.295283E+12 0.771208E+11
     1803.98  0.291318E+12 0.754705E+11
     1804.48  0.287446E+12 0.738630E+11
     1804.98  0.283664E+12 0.722969E+11
     1805.49  0.279968E+12 0.707709E+11
     1805.99  0.276356E+12 0.692837E+11
     1806.00  0.276265E+12 0.692462E+11
     1806.49  0.272826E+12 0.678339E+11
     1806.99  0.269375E+12 0.664206E+11
     1807.49  0.266001E+12 0.650424E+11
     1807.99  0.262702E+12 0.636984E+11
     1808.49  0.259475E+12 0.623873E+11
     1808.99  0.256318E+12 0.611083E+11
     1809.50  0.253230E+12 0.598603E+11
     1810.00  0.250208E+12 0.586424E+11
     1810.50  0.247250E+12 0.574536E+11
     1811.00  0.244355E+12 0.562931E+11
     1811.50  0.241521E+12 0.551601E+11
     1812.00  0.238746E+12 0.540537E+11
     1812.50  0.236028E+12 0.529731E+11
     1813.00  0.233367E+12 0.519176E+11
     1813.51  0.230760E+12 0.508864E+11
     1814.01  0.228206E+12 0.498789E+11
     1814.51  0.225703E+12 0.488944E+11
     1815.01  0.223250E+12 0.479321E+11
     1815.51  0.220846E+12 0.469915E+11
     1816.00  0.218547E+12 0.460943E+11
     1816.01  0.218490E+12 0.460720E+11
     1816.51  0.216180E+12 0.451729E+11
     1817.01  0.213915E+12 0.442937E+11
     1817.52  0.211693E+12 0.434339E+11
     1818.02  0.209515E+12 0.425928E+11
     1818.52  0.207378E+12 0.417700E+11
     1819.02  0.205281E+12 0.409651E+11
     1819.52  0.203224E+12 0.401774E+11
     1820.02  0.201206E+12 0.394066E+11
     1820.52  0.199225E+12 0.386522E+11
     1821.02  0.197281E+12 0.379137E+11
     1821.53  0.195373E+12 0.371908E+11
     1822.03  0.193499E+12 0.364830E+11
     1822.53  0.191659E+12 0.357899E+11
     1823.03  0.189853E+12 0.351112E+11
     1823.53  0.188079E+12 0.344465E+11
     1824.03  0.186336E+12 0.337954E+11
     1824.53  0.184624E+12 0.331576E+11
     1825.03  0.182943E+12 0.325327E+11
     1825.54  0.181290E+12 0.319204E+11
     1826.00  0.179787E+12 0.313647E+11
     1826.04  0.179667E+12 0.313204E+11
     1826.54  0.178071E+12 0.307325E+11
     1827.04  0.176503E+12 0.301562E+11
     1827.54  0.174961E+12 0.295913E+11
     1828.04  0.173446E+12 0.290376E+11
     1828.54  0.171956E+12 0.284947E+11
     1829.04  0.170491E+12 0.279624E+11
     1829.55  0.169050E+12 0.274405E+11
     1830.05  0.167634E+12 0.269286E+11
     1830.55  0.166240E+12 0.264267E+11
     1831.05  0.164870E+12 0.259343E+11
     1831.55  0.163521E+12 0.254514E+11
     1832.05  0.162195E+12 0.249776E+11
     1832.55  0.160890E+12 0.245128E+11
     1833.05  0.159605E+12 0.240567E+11
     1833.56  0.158341E+12 0.236092E+11
     1834.06  0.157097E+12 0.231701E+11
     1834.56  0.155873E+12 0.227392E+11
     1835.06  0.154667E+12 0.223162E+11
     1835.56  0.153481E+12 0.219011E+11
     1836.00  0.152457E+12 0.215439E+11
     1836.06  0.152313E+12 0.214936E+11
     1836.56  0.151162E+12 0.210936E+11
     1837.06  0.150030E+12 0.207009E+11
     1837.57  0.148914E+12 0.203153E+11
     1838.07  0.147815E+12 0.199367E+11
     1838.57  0.146733E+12 0.195650E+11
     1839.07  0.145667E+12 0.191999E+11
     1839.57  0.144617E+12 0.188414E+11
     1840.07  0.143582E+12 0.184893E+11
     1840.57  0.142563E+12 0.181435E+11
     1841.07  0.141558E+12 0.178038E+11
     1841.58  0.140569E+12 0.174702E+11
     1842.08  0.139593E+12 0.171424E+11
     1842.58  0.138632E+12 0.168204E+11
     1843.08  0.137684E+12 0.165040E+11
     1843.58  0.136750E+12 0.161932E+11
     1844.08  0.135829E+12 0.158878E+11
     1844.58  0.134921E+12 0.155877E+11
     1845.08  0.134026E+12 0.152928E+11
     1845.59  0.133143E+12 0.150030E+11
     1846.00  0.132423E+12 0.147675E+11
     1846.09  0.132272E+12 0.147182E+11
     1846.59  0.131414E+12 0.144383E+11
     1847.09  0.130567E+12 0.141632E+11
     1847.59  0.129732E+12 0.138928E+11
     1848.09  0.128909E+12 0.136270E+11
     1848.59  0.128096E+12 0.133658E+11
     1849.09  0.127295E+12 0.131090E+11
     1849.60  0.126504E+12 0.128566E+11
     1850.10  0.125723E+12 0.126084E+11
     1850.60  0.124954E+12 0.123644E+11
     1851.10  0.124194E+12 0.121245E+11
     1856.00  0.117268E+12 0.998130E+10
     1866.00  0.105500E+12 0.655720E+10
     1876.00  0.961624E+11 0.410473E+10
     1886.00  0.886138E+11 0.237238E+10
     1896.00  0.824128E+11 0.119344E+10
     1906.00  0.772459E+11 0.454812E+09
     1916.00  0.728856E+11 0.783319E+08
     1926.00  0.691628E+11 0.919854E+07
     1936.00  0.659495E+11 0.208576E+09
     1946.00  0.631473E+11 0.648724E+09
     1956.00  0.606790E+11 0.130971E+10
     1966.00  0.584835E+11 0.217712E+10
     1976.00  0.565116E+11 0.324046E+10
     1986.00  0.547234E+11 0.449196E+10
     1996.00  0.530860E+11 0.592571E+10
     2006.00  0.515724E+11 0.753699E+10
     2016.00  0.501597E+11 0.932177E+10
     2026.00  0.488290E+11 0.112763E+11
     2036.00  0.475642E+11 0.133968E+11
     2046.00  0.463516E+11 0.156791E+11
     2056.00  0.451798E+11 0.181186E+11
     2066.00  0.440390E+11 0.207101E+11
     2076.00  0.429211E+11 0.234474E+11
     2086.00  0.418191E+11 0.263236E+11
     2096.00  0.407275E+11 0.293309E+11
     2106.00  0.396417E+11 0.324604E+11
     2116.00  0.385581E+11 0.357023E+11
     2126.00  0.374740E+11 0.390460E+11
     2136.00  0.363873E+11 0.424801E+11
     2146.00  0.352968E+11 0.459921E+11
     2156.00  0.342018E+11 0.495692E+11
     2166.00  0.331023E+11 0.531978E+11
     2176.00  0.319985E+11 0.568642E+11
     2186.00  0.308914E+11 0.605540E+11
     2196.00  0.297822E+11 0.642530E+11
     2206.00  0.286723E+11 0.679469E+11
     2216.00  0.275635E+11 0.716216E+11
     2226.00  0.264578E+11 0.752634E+11
     2236.00  0.253572E+11 0.788589E+11
     2246.00  0.242639E+11 0.823952E+11
     2256.00  0.231801E+11 0.858602E+11
     2266.00  0.221082E+11 0.892425E+11
     2276.00  0.210502E+11 0.925315E+11
     2286.00  0.200083E+11 0.957175E+11
     2296.00  0.189846E+11 0.987918E+11
     2306.00  0.179810E+11 0.101746E+12
     2316.00  0.169993E+11 0.104575E+12
     2326.00  0.160411E+11 0.107270E+12
     2336.00  0.151080E+11 0.109829E+12
     2346.00  0.142012E+11 0.112246E+12
     2356.00  0.133220E+11 0.114518E+12
     2366.00  0.124713E+11 0.116643E+12
     2376.00  0.116499E+11 0.118620E+12
     2386.00  0.108584E+11 0.120446E+12
     2396.00  0.100975E+11 0.122124E+12
     2406.00  0.936749E+10 0.123651E+12
     2416.00  0.866853E+10 0.125031E+12
     2426.00  0.800072E+10 0.126263E+12
     2436.00  0.736406E+10 0.127351E+12
     2446.00  0.675838E+10 0.128296E+12
     2456.00  0.618345E+10 0.129102E+12
     2466.00  0.563893E+10 0.129771E+12
     2476.00  0.512440E+10 0.130306E+12
     2486.00  0.463937E+10 0.130711E+12
     2496.00  0.418331E+10 0.130990E+12
     2506.00  0.375559E+10 0.131147E+12
     2516.00  0.335558E+10 0.131184E+12
     2526.00  0.298258E+10 0.131108E+12
     2536.00  0.263586E+10 0.130921E+12
     2546.00  0.231469E+10 0.130628E+12
     2556.00  0.201828E+10 0.130233E+12
     2566.00  0.174587E+10 0.129739E+12
     2576.00  0.149664E+10 0.129152E+12
     2586.00  0.126981E+10 0.128475E+12
     2596.00  0.106456E+10 0.127713E+12
     2606.00  0.880098E+09 0.126869E+12
     2616.00  0.715613E+09 0.125947E+12
     2626.00  0.570315E+09 0.124952E+12
     2636.00  0.443417E+09 0.123886E+12
     2646.00  0.334141E+09 0.122754E+12
     2656.00  0.241721E+09 0.121560E+12
     2666.00  0.165405E+09 0.120307E+12
     2676.00  0.104451E+09 0.118999E+12
     2686.00  0.581363E+08 0.117638E+12
     2696.00  0.257508E+08 0.116229E+12
     2706.00  0.660157E+07 0.114774E+12
     2716.00  0.118699E+05 0.113277E+12
     2726.00  0.532198E+07 0.111741E+12
     2736.00  0.218893E+08 0.110169E+12
     2746.00  0.490886E+08 0.108563E+12
     2756.00  0.863119E+08 0.106927E+12
     2766.00  0.132969E+09 0.105264E+12
     2776.00  0.188486E+09 0.103575E+12
     2786.00  0.252308E+09 0.101864E+12
     2796.00  0.323896E+09 0.100133E+12
     2806.00  0.402729E+09 0.983845E+11
     2816.00  0.488301E+09 0.966208E+11
     2826.00  0.580124E+09 0.948442E+11
     2836.00  0.677727E+09 0.930568E+11
     2846.00  0.780654E+09 0.912607E+11
     2856.00  0.888465E+09 0.894580E+11
     2866.00  0.100073E+10 0.876507E+11
     2876.00  0.111705E+10 0.858407E+11
     2886.00  0.123703E+10 0.840297E+11
     2896.00  0.136029E+10 0.822194E+11
     2906.00  0.148645E+10 0.804117E+11
     2916.00  0.161518E+10 0.786079E+11
     2926.00  0.174613E+10 0.768098E+11
     2936.00  0.187897E+10 0.750188E+11
     2946.00  0.201341E+10 0.732362E+11
     2956.00  0.214914E+10 0.714634E+11
     2966.00  0.228587E+10 0.697017E+11
     2976.00  0.242334E+10 0.679523E+11
     2986.00  0.256127E+10 0.662163E+11
     2996.00  0.269943E+10 0.644950E+11
     3006.00  0.283757E+10 0.627893E+11
     3016.00  0.297547E+10 0.611002E+11
     3026.00  0.311290E+10 0.594286E+11
     3036.00  0.324967E+10 0.577755E+11
     3046.00  0.338558E+10 0.561417E+11
     3056.00  0.352043E+10 0.545278E+11
     3066.00  0.365407E+10 0.529348E+11
     3076.00  0.378631E+10 0.513632E+11
     3086.00  0.391701E+10 0.498137E+11
     3096.00  0.404600E+10 0.482869E+11
     3106.00  0.417317E+10 0.467834E+11
     3116.00  0.429836E+10 0.453035E+11
     3126.00  0.442147E+10 0.438479E+11
     3136.00  0.454237E+10 0.424168E+11
     3146.00  0.466096E+10 0.410108E+11
     3156.00  0.477713E+10 0.396301E+11
     3166.00  0.489080E+10 0.382750E+11
     3176.00  0.500188E+10 0.369458E+11
     3186.00  0.511029E+10 0.356427E+11
     3196.00  0.521596E+10 0.343660E+11
     3206.00  0.531882E+10 0.331156E+11
     3216.00  0.541881E+10 0.318919E+11
     3226.00  0.551587E+10 0.306949E+11
     3236.00  0.560997E+10 0.295246E+11
     3246.00  0.570105E+10 0.283811E+11
     3256.00  0.578909E+10 0.272645E+11
     3266.00  0.587404E+10 0.261746E+11
     3276.00  0.595588E+10 0.251114E+11
     3286.00  0.603459E+10 0.240749E+11
     3296.00  0.611014E+10 0.230650E+11
     3306.00  0.618253E+10 0.220816E+11
     3316.00  0.625175E+10 0.211245E+11
     3326.00  0.631778E+10 0.201935E+11
     3336.00  0.638063E+10 0.192886E+11
     3346.00  0.644030E+10 0.184095E+11
     3356.00  0.649680E+10 0.175559E+11
     3366.00  0.655013E+10 0.167277E+11
     3376.00  0.660031E+10 0.159246E+11
     3386.00  0.664735E+10 0.151464E+11
     3396.00  0.669127E+10 0.143928E+11
     3406.00  0.673209E+10 0.136634E+11
     3416.00  0.676983E+10 0.129581E+11
     3426.00  0.680453E+10 0.122764E+11
     3436.00  0.683621E+10 0.116181E+11
     3446.00  0.686489E+10 0.109828E+11
     3456.00  0.689062E+10 0.103702E+11
     3466.00  0.691343E+10 0.977996E+10
     3476.00  0.693335E+10 0.921168E+10
     3486.00  0.695043E+10 0.866500E+10
     3496.00  0.696470E+10 0.813956E+10
     3506.00  0.697621E+10 0.763498E+10
     3516.00  0.698500E+10 0.715088E+10
     3526.00  0.699111E+10 0.668686E+10
     3536.00  0.699459E+10 0.624253E+10
     3546.00  0.699549E+10 0.581749E+10
     3556.00  0.699385E+10 0.541136E+10
     3566.00  0.698973E+10 0.502371E+10
     3576.00  0.698317E+10 0.465415E+10
     3586.00  0.697423E+10 0.430227E+10
     3596.00  0.696295E+10 0.396767E+10
     3606.00  0.694938E+10 0.364993E+10
     3616.00  0.693359E+10 0.334865E+10
     3626.00  0.691561E+10 0.306343E+10
     3636.00  0.689551E+10 0.279384E+10
     3646.00  0.687334E+10 0.253950E+10
     3656.00  0.684915E+10 0.229999E+10
     3666.00  0.682300E+10 0.207491E+10
     3676.00  0.679493E+10 0.186386E+10
     3686.00  0.676502E+10 0.166645E+10
     3696.00  0.673329E+10 0.148227E+10
     3706.00  0.669982E+10 0.131094E+10
     3716.00  0.666465E+10 0.115206E+10
     3726.00  0.662785E+10 0.100525E+10
     3736.00  0.658945E+10 0.870134E+09
     3746.00  0.654952E+10 0.746324E+09
     3756.00  0.650811E+10 0.633450E+09
     3766.00  0.646527E+10 0.531144E+09
     3776.00  0.642106E+10 0.439040E+09
     3786.00  0.637552E+10 0.356778E+09
     3796.00  0.632872E+10 0.284004E+09
     3806.00  0.628069E+10 0.220369E+09
     3816.00  0.623149E+10 0.165526E+09
     3826.00  0.618118E+10 0.119137E+09
     3836.00  0.612979E+10 0.808679E+08
     3846.00  0.607739E+10 0.503908E+08
     3856.00  0.602401E+10 0.273832E+08
     3866.00  0.596971E+10 0.115281E+08
     3876.00  0.591453E+10 0.251482E+07
     3886.00  0.585852E+10 0.382857E+05
     3896.00  0.580172E+10 0.379954E+07
     3906.00  0.574419E+10 0.135056E+08
     3916.00  0.568597E+10 0.288697E+08
     3926.00  0.562709E+10 0.496110E+08
     3936.00  0.556761E+10 0.754548E+08
     3946.00  0.550756E+10 0.106133E+09
     3956.00  0.544699E+10 0.141383E+09
     3966.00  0.538594E+10 0.180948E+09
     3976.00  0.532444E+10 0.224580E+09
     3986.00  0.526254E+10 0.272033E+09
     3996.00  0.520028E+10 0.323071E+09
     4006.00  0.513768E+10 0.377462E+09
     4016.00  0.507480E+10 0.434981E+09
     4026.00  0.501166E+10 0.495408E+09
     4036.00  0.494830E+10 0.558530E+09
     4046.00  0.488476E+10 0.624141E+09
     4056.00  0.482106E+10 0.692038E+09
     4066.00  0.475725E+10 0.762026E+09
     4076.00  0.469335E+10 0.833917E+09
     4086.00  0.462939E+10 0.907526E+09
     4096.00  0.456541E+10 0.982676E+09
     4106.00  0.450143E+10 0.105919E+10
     4116.00  0.443749E+10 0.113691E+10
     4126.00  0.437360E+10 0.121568E+10
     4136.00  0.430981E+10 0.129532E+10
     4146.00  0.424613E+10 0.137571E+10
     4156.00  0.418259E+10 0.145668E+10
     4166.00  0.411921E+10 0.153811E+10
     4176.00  0.405602E+10 0.161985E+10
     4186.00  0.399304E+10 0.170178E+10
     4196.00  0.393030E+10 0.178378E+10
     4206.00  0.386782E+10 0.186572E+10
     4216.00  0.380561E+10 0.194749E+10
     4226.00  0.374370E+10 0.202898E+10
     4236.00  0.368211E+10 0.211010E+10
     4246.00  0.362086E+10 0.219072E+10
     4256.00  0.355996E+10 0.227078E+10
     4266.00  0.349944E+10 0.235016E+10
     4276.00  0.343930E+10 0.242878E+10
     4286.00  0.337957E+10 0.250657E+10
     4296.00  0.332026E+10 0.258343E+10
     4306.00  0.326139E+10 0.265931E+10
     4316.00  0.320296E+10 0.273412E+10
     4326.00  0.314500E+10 0.280781E+10
     4336.00  0.308752E+10 0.288030E+10
     4346.00  0.303052E+10 0.295155E+10
     4356.00  0.297403E+10 0.302149E+10
     4366.00  0.291804E+10 0.309007E+10
     4376.00  0.286258E+10 0.315724E+10
     4386.00  0.280765E+10 0.322296E+10
     4396.00  0.275326E+10 0.328719E+10
     4406.00  0.269942E+10 0.334989E+10
     4416.00  0.264614E+10 0.341102E+10
     4426.00  0.259343E+10 0.347055E+10
     4436.00  0.254129E+10 0.352845E+10
     4446.00  0.248972E+10 0.358470E+10
     4456.00  0.243875E+10 0.363926E+10
     4466.00  0.238836E+10 0.369212E+10
     4476.00  0.233858E+10 0.374325E+10
     4486.00  0.228939E+10 0.379265E+10
     4511.00  0.216909E+10 0.390845E+10
     4536.00  0.205263E+10 0.401313E+10
     4561.00  0.194006E+10 0.410662E+10
     4586.00  0.183140E+10 0.418893E+10
     4611.00  0.172667E+10 0.426010E+10
     4636.00  0.162585E+10 0.432027E+10
     4661.00  0.152894E+10 0.436962E+10
     4686.00  0.143592E+10 0.440838E+10
     4711.00  0.134674E+10 0.443682E+10
     4736.00  0.126138E+10 0.445526E+10
     4761.00  0.117976E+10 0.446405E+10
     4786.00  0.110184E+10 0.446354E+10
     4811.00  0.102755E+10 0.445413E+10
     4836.00  0.956815E+09 0.443625E+10
     4861.00  0.889555E+09 0.441030E+10
     4886.00  0.825689E+09 0.437675E+10
     4911.00  0.765130E+09 0.433602E+10
     4936.00  0.707788E+09 0.428857E+10
     4961.00  0.653571E+09 0.423486E+10
     4986.00  0.602383E+09 0.417533E+10
     5011.00  0.554126E+09 0.411044E+10
     5036.00  0.508703E+09 0.404063E+10
     5061.00  0.466014E+09 0.396635E+10
     5086.00  0.425959E+09 0.388802E+10
     5111.00  0.388437E+09 0.380606E+10
     5136.00  0.353349E+09 0.372088E+10
     5161.00  0.320594E+09 0.363288E+10
     5186.00  0.290075E+09 0.354244E+10
     5211.00  0.261694E+09 0.344993E+10
     5236.00  0.235353E+09 0.335570E+10
     5261.00  0.210958E+09 0.326010E+10
     5286.00  0.188415E+09 0.316344E+10
     5311.00  0.167633E+09 0.306603E+10
     5336.00  0.148523E+09 0.296817E+10
     5361.00  0.130996E+09 0.287012E+10
     5386.00  0.114968E+09 0.277216E+10
     5411.00  0.100356E+09 0.267451E+10
     5436.00  0.870789E+08 0.257741E+10
     5461.00  0.750595E+08 0.248106E+10
     5511.00  0.544935E+08 0.229141E+10
     5561.00  0.380854E+08 0.210694E+10
     5611.00  0.253041E+08 0.192880E+10
     5661.00  0.156603E+08 0.175793E+10
     5711.00  0.870610E+07 0.159507E+10
     5761.00  0.403362E+07 0.144078E+10
     5811.00  0.127405E+07 0.129542E+10
     5861.00  0.959085E+05 0.115926E+10
     5911.00  0.203206E+06 0.103238E+10
     5961.00  0.133346E+07 0.914773E+09
     6011.00  0.325558E+07 0.806334E+09
     6061.00  0.576772E+07 0.706864E+09
     6111.00  0.869504E+07 0.616096E+09
     6161.00  0.118876E+08 0.533704E+09
     6211.00  0.152181E+08 0.459316E+09
     6261.00  0.185798E+08 0.392525E+09
     6311.00  0.218846E+08 0.332899E+09
     6361.00  0.250611E+08 0.279988E+09
     6411.00  0.280525E+08 0.233333E+09
     6461.00  0.308153E+08 0.192474E+09
     6511.00  0.333175E+08 0.156953E+09
     6561.00  0.355368E+08 0.126321E+09
     6611.00  0.374598E+08 0.100139E+09
     6661.00  0.390803E+08 0.779878E+08
     6711.00  0.403983E+08 0.594618E+08
     6761.00  0.414191E+08 0.441777E+08
     6811.00  0.421519E+08 0.317736E+08
     6861.00  0.426095E+08 0.219101E+08
     6911.00  0.428072E+08 0.142710E+08
     6961.00  0.427623E+08 0.856352E+07
     7011.00  0.424935E+08 0.451821E+07
     7061.00  0.420204E+08 0.188846E+07
     7111.00  0.413630E+08 0.450025E+06
     7161.00  0.405415E+08 0.198789E+03
     7211.00  0.395756E+08 0.356932E+06
     7261.00  0.384850E+08 0.135780E+07
     7311.00  0.372883E+08 0.285888E+07
     7361.00  0.360035E+08 0.473364E+07
     7411.00  0.346474E+08 0.687171E+07
     7511.00  0.317844E+08 0.115700E+08
     7611.00  0.288128E+08 0.163490E+08
     7711.00  0.258279E+08 0.207876E+08
     7811.00  0.229061E+08 0.246139E+08
     7911.00  0.201069E+08 0.276739E+08
     8011.00  0.174738E+08 0.299038E+08
     8111.00  0.150365E+08 0.313064E+08
     8211.00  0.128130E+08 0.319316E+08
     8311.00  0.108111E+08 0.318599E+08
     8411.00  0.903121E+07 0.311896E+08
     8511.00  0.746716E+07 0.300268E+08
     8611.00  0.610838E+07 0.284780E+08
     8711.00  0.494106E+07 0.266445E+08
     8811.00  0.394936E+07 0.246193E+08
     8911.00  0.311630E+07 0.224846E+08
     9011.00  0.242457E+07 0.203106E+08
     9111.00  0.185710E+07 0.181557E+08
     9211.00  0.139755E+07 0.160663E+08
     9311.00  0.103055E+07 0.140783E+08
     9411.00  0.741978E+06 0.122173E+08
     9511.00  0.519032E+06 0.105008E+08
     9611.00  0.350299E+06 0.893858E+07
     9711.00  0.225739E+06 0.753440E+07
     9811.00  0.136642E+06 0.628709E+07
     9911.00  0.755478E+05 0.519170E+07
    10011.00  0.361503E+05 0.424037E+07
    10111.00  0.131900E+05 0.342324E+07
    10211.00  0.234093E+04 0.272918E+07
    10311.00  0.976033E+02 0.214634E+07
    10411.00  0.366597E+04 0.166269E+07
    10511.00  0.108602E+05 0.126638E+07
    10611.00  0.200075E+05 0.946015E+06
    10711.00  0.298616E+05 0.690895E+06
    10811.00  0.395261E+05 0.491130E+06
    10911.00  0.483865E+05 0.337732E+06
    11011.00  0.560518E+05 0.222653E+06
    11111.00  0.623046E+05 0.138790E+06
    11211.00  0.670589E+05 0.799501E+05
    11311.00  0.703255E+05 0.408130E+05
    11411.00  0.721832E+05 0.168638E+05
    11511.00  0.727564E+05 0.432587E+04
    11611.00  0.721965E+05 0.855508E+02
    11711.00  0.706681E+05 0.161681E+04
    11811.00  0.683389E+05 0.690655E+04
    11911.00  0.653717E+05 0.143833E+05
    12011.00  0.619192E+05 0.228504E+05
    12111.00  0.581209E+05 0.314250E+05
    12211.00  0.541004E+05 0.394822E+05
    12311.00  0.499655E+05 0.466064E+05
    12411.00  0.458075E+05 0.525478E+05
    12511.00  0.417019E+05 0.571854E+05
    12611.00  0.377098E+05 0.604955E+05
    12711.00  0.338788E+05 0.625252E+05
    12811.00  0.302446E+05 0.633705E+05
    12911.00  0.268325E+05 0.631590E+05
    13011.00  0.236588E+05 0.620354E+05
    13111.00  0.207320E+05 0.601513E+05
    13211.00  0.180546E+05 0.576566E+05
    13311.00  0.156238E+05 0.546941E+05
    13411.00  0.134329E+05 0.513952E+05
    13511.00  0.114721E+05 0.478776E+05
    13611.00  0.972927E+04 0.442438E+05
    13711.00  0.819079E+04 0.405812E+05
    13811.00  0.684202E+04 0.369619E+05
    13911.00  0.566780E+04 0.334438E+05
    14011.00  0.465289E+04 0.300718E+05
    14111.00  0.378225E+04 0.268791E+05
    14211.00  0.304126E+04 0.238884E+05
    14311.00  0.241596E+04 0.211141E+05
    14411.00  0.189310E+04 0.185627E+05
    14511.00  0.146030E+04 0.162350E+05
    14611.00  0.110609E+04 0.141270E+05
    14711.00  0.819896E+03 0.122309E+05
    14811.00  0.592085E+03 0.105363E+05
    14911.00  0.413938E+03 0.903087E+04
    15011.00  0.277617E+03 0.770117E+04
    15111.00  0.176135E+03 0.653310E+04
    15211.00  0.103308E+03 0.551242E+04
    15311.00  0.537040E+02 0.462511E+04
    15411.00  0.225934E+02 0.385765E+04
    15511.00  0.589373E+01 0.319720E+04
    15611.00  0.115867E+00 0.263172E+04
    15711.00  0.231028E+01 0.215007E+04
    15811.00  0.100149E+02 0.174205E+04
    15911.00  0.212049E+02 0.139839E+04
    16011.00  0.342443E+02 0.111072E+04
    16111.00  0.478404E+02 0.871570E+03
    16211.00  0.610008E+02 0.674266E+03
    16311.00  0.729930E+02 0.512917E+03
    16411.00  0.833070E+02 0.382324E+03
    16511.00  0.916207E+02 0.277923E+03
    16611.00  0.977684E+02 0.195723E+03
    16711.00  0.101711E+03 0.132242E+03
    16811.00  0.103512E+03 0.844485E+02
    16911.00  0.103311E+03 0.497096E+02
    17011.00  0.101306E+03 0.257422E+02
    17111.00  0.977311E+02 0.105693E+02
    17211.00  0.928469E+02 0.248118E+01
    17311.00  0.869214E+02 0.153780E-02
    17411.00  0.802216E+02 0.185813E+01
    17511.00  0.730039E+02 0.695727E+01
    17611.00  0.655069E+02 0.143622E+02
    17711.00  0.579457E+02 0.232743E+02
    17811.00  0.505089E+02 0.330181E+02
    17911.00  0.433561E+02 0.430272E+02
    18011.00  0.366163E+02 0.528336E+02
    18111.00  0.303890E+02 0.620574E+02
    18211.00  0.247449E+02 0.703990E+02
    18311.00  0.197273E+02 0.776311E+02
    18411.00  0.153553E+02 0.835920E+02
    18511.00  0.116262E+02 0.881793E+02
    18611.00  0.851887E+01 0.913438E+02
    18711.00  0.599704E+01 0.930829E+02
    18811.00  0.401266E+01 0.934363E+02
    18911.00  0.250919E+01 0.924782E+02
    19011.00  0.142474E+01 0.903126E+02
    19111.00  0.694916E+00 0.870675E+02
    19311.00  0.439786E-01 0.779335E+02
    19511.00  0.792446E-01 0.663565E+02
    19711.00  0.408707E+00 0.536466E+02
    19911.00  0.753097E+00 0.410016E+02
    20111.00  0.951317E+00 0.293978E+02
    20311.00  0.948151E+00 0.195232E+02
    20511.00  0.769938E+00 0.117532E+02
    20711.00  0.494258E+00 0.616694E+01
    20911.00  0.219170E+00 0.259665E+01
    21111.00  0.364915E-01 0.697854E+00
    21311.00  0.121701E-01 0.298169E-01
    21511.00  0.175243E+00 0.133150E+00
    21711.00  0.515404E+00 0.594832E+00
    21911.00  0.987986E+00 0.109380E+01
    22111.00  0.152434E+01 0.142396E+01
    22311.00  0.204516E+01 0.149538E+01
    22511.00  0.247423E+01 0.131725E+01
    22711.00  0.275046E+01 0.968655E+00
    22911.00  0.283662E+01 0.563876E+00
    23111.00  0.272374E+01 0.218858E+00
    23311.00  0.243109E+01 0.241340E-01
    23511.00  0.200213E+01 0.277097E-01
    23711.00  0.149739E+01 0.229212E+00
    23911.00  0.985452E+00 0.584545E+00
    24111.00  0.533554E+00 0.101867E+01
    24311.00  0.198958E+00 0.144309E+01
    24511.00  0.221959E-01 0.177426E+01
    24711.00  0.228712E-01 0.194951E+01
    24911.00  0.198348E+00 0.193786E+01
    25111.00  0.525234E+00 0.174435E+01
    25311.00  0.963257E+00 0.140764E+01
    25511.00  0.146087E+01 0.991894E+00
    25711.00  0.196178E+01 0.574787E+00
    25911.00  0.241156E+01 0.233909E+00
    26111.00  0.276359E+01 0.339042E-01
    26311.00  0.298372E+01 0.164028E-01
    26511.00  0.305311E+01 0.194119E+00
    26711.00  0.296940E+01 0.549768E+00
    26911.00  0.274576E+01 0.103962E+01



