         11        11        12       781C   C   D    0.822591500D+05
 E STATE HAS LABEL C   
 VIBRATIONAL LEVELS FOR STATE E IN 1/CM FOR J= 10
     -16151.21894    -14007.60206    -11994.70792    -10110.97229
     -8355.87626     -6730.85893     -5238.62267     -3884.36178
     -2676.01516     -1626.17039      -754.27568       -93.22058
 PROPORTION OF STATE C   
  0.999998E+00 0.999995E+00 0.999992E+00 0.999990E+00 0.999989E+00
  0.999988E+00 0.999988E+00 0.999988E+00 0.999988E+00 0.999989E+00
  0.999990E+00 0.999992E+00
 PROPORTION OF STATE D   
  0.167825E-05 0.521440E-05 0.789433E-05 0.981047E-05 0.110688E-04
  0.117833E-04 0.120672E-04 0.120274E-04 0.117348E-04 0.111328E-04
  0.100778E-04 0.801759E-05
 TABLE FOR EMISSION PROBABILITIES   E(J= 10,IE) ==>F(J= 10,IF)
         IE==>      0            1            2            3
        1.00  0.619933E-23 0.182231E-20 0.111258E-17 0.157069E-17
        2.00  0.756541E-20 0.222181E-17 0.136022E-14 0.190739E-14
        3.00  0.455706E-18 0.133708E-15 0.820825E-13 0.114327E-12
        4.00  0.805255E-17 0.236050E-14 0.145308E-11 0.201022E-11
        5.00  0.729115E-16 0.213534E-13 0.131809E-10 0.181112E-10
        6.00  0.433457E-15 0.126828E-12 0.785039E-10 0.107134E-09
        7.00  0.193055E-14 0.564353E-12 0.350285E-09 0.474776E-09
        8.00  0.696799E-14 0.203506E-11 0.126662E-08 0.170503E-08
        9.00  0.214368E-13 0.625504E-11 0.390389E-08 0.521908E-08
       10.00  0.581789E-13 0.169604E-10 0.106146E-07 0.140929E-07
       11.00  0.142738E-12 0.415731E-10 0.260904E-07 0.344008E-07
       12.00  0.322323E-12 0.937921E-10 0.590249E-07 0.772870E-07
       13.00  0.679095E-12 0.197428E-09 0.124589E-06 0.162003E-06
       14.00  0.134908E-11 0.391847E-09 0.247967E-06 0.320184E-06
       15.00  0.254815E-11 0.739449E-09 0.469234E-06 0.601658E-06
       16.00  0.460682E-11 0.133563E-08 0.849915E-06 0.108213E-05
       17.00  0.801553E-11 0.232179E-08 0.148155E-05 0.187307E-05
       18.00  0.134826E-10 0.390183E-08 0.249673E-05 0.313424E-05
       19.00  0.220068E-10 0.636291E-08 0.408291E-05 0.508914E-05
       20.00  0.349672E-10 0.101010E-07 0.649964E-05 0.804392E-05
       21.00  0.542321E-10 0.156519E-07 0.100996E-04 0.124101E-04
       22.00  0.822907E-10 0.237283E-07 0.153538E-04 0.187315E-04
       23.00  0.122410E-09 0.352645E-07 0.228824E-04 0.277161E-04
       24.00  0.178817E-09 0.514679E-07 0.334901E-04 0.402726E-04
       25.00  0.256916E-09 0.738801E-07 0.482085E-04 0.575532E-04
       26.00  0.363539E-09 0.104447E-06 0.683453E-04 0.810022E-04
       27.00  0.507229E-09 0.145598E-06 0.955408E-04 0.112411E-03
       28.00  0.698569E-09 0.200340E-06 0.131832E-03 0.153980E-03
       29.00  0.950554E-09 0.272361E-06 0.179730E-03 0.208387E-03
       30.00  0.127901E-08 0.366142E-06 0.242297E-03 0.278868E-03
       31.00  0.170305E-08 0.487095E-06 0.323248E-03 0.369297E-03
       32.00  0.224562E-08 0.641702E-06 0.427051E-03 0.484282E-03
       33.00  0.293407E-08 0.837678E-06 0.559050E-03 0.629268E-03
       34.00  0.380077E-08 0.108415E-05 0.725588E-03 0.810646E-03
       35.00  0.488386E-08 0.139185E-05 0.934160E-03 0.103588E-02
       36.00  0.622799E-08 0.177332E-05 0.119357E-02 0.131361E-02
       37.00  0.788518E-08 0.224318E-05 0.151410E-02 0.165385E-02
       38.00  0.991573E-08 0.281831E-05 0.190771E-02 0.206807E-02
       39.00  0.123893E-07 0.351822E-05 0.238824E-02 0.256940E-02
       40.00  0.153858E-07 0.436526E-05 0.297167E-02 0.317279E-02
       42.00  0.233269E-07 0.660657E-05 0.452313E-02 0.475576E-02
       44.00  0.346342E-07 0.979159E-05 0.674209E-02 0.698022E-02
       46.00  0.504545E-07 0.142390E-04 0.986061E-02 0.100513E-01
       48.00  0.722384E-07 0.203508E-04 0.141740E-01 0.142236E-01
       50.00  0.101799E-06 0.286280E-04 0.200538E-01 0.198088E-01
       52.00  0.141378E-06 0.396887E-04 0.279621E-01 0.271850E-01
       54.00  0.193721E-06 0.542873E-04 0.384685E-01 0.368052E-01
       56.00  0.262156E-06 0.733367E-04 0.522680E-01 0.492078E-01
       58.00  0.350688E-06 0.979320E-04 0.702025E-01 0.650267E-01
       60.00  0.464101E-06 0.129378E-03 0.932837E-01 0.850026E-01
       62.00  0.608065E-06 0.169217E-03 0.122719E+00 0.109995E+00
       64.00  0.789263E-06 0.219261E-03 0.159941E+00 0.140993E+00
       66.00  0.101552E-05 0.281629E-03 0.206638E+00 0.179129E+00
       68.00  0.129594E-05 0.358776E-03 0.264787E+00 0.225692E+00
       70.00  0.164106E-05 0.453541E-03 0.336693E+00 0.282137E+00
       72.00  0.206303E-05 0.569183E-03 0.425030E+00 0.350100E+00
       74.00  0.257575E-05 0.709426E-03 0.532881E+00 0.431409E+00
       76.00  0.319510E-05 0.878509E-03 0.663789E+00 0.528098E+00
       78.00  0.393911E-05 0.108123E-02 0.821807E+00 0.642417E+00
       80.00  0.482819E-05 0.132303E-02 0.101156E+01 0.776850E+00
       82.00  0.588536E-05 0.160998E-02 0.123829E+01 0.934120E+00
       84.00  0.713652E-05 0.194895E-02 0.150793E+01 0.111721E+01
       86.00  0.861066E-05 0.234757E-02 0.182721E+01 0.132936E+01
       88.00  0.103402E-04 0.281436E-02 0.220366E+01 0.157410E+01
       90.00  0.123611E-04 0.335878E-02 0.264574E+01 0.185524E+01
       92.00  0.147136E-04 0.399132E-02 0.316291E+01 0.217689E+01
       94.00  0.174419E-04 0.472354E-02 0.376572E+01 0.254344E+01
       96.00  0.205951E-04 0.556819E-02 0.446593E+01 0.295961E+01
       98.00  0.242269E-04 0.653926E-02 0.527654E+01 0.343042E+01
      100.00  0.283968E-04 0.765212E-02 0.621199E+01 0.396122E+01
      102.00  0.331698E-04 0.892356E-02 0.728822E+01 0.455766E+01
      104.00  0.386169E-04 0.103719E-01 0.852281E+01 0.522573E+01
      106.00  0.448162E-04 0.120172E-01 0.993513E+01 0.597173E+01
      108.00  0.518523E-04 0.138812E-01 0.115465E+02 0.680231E+01
      110.00  0.598178E-04 0.159875E-01 0.133802E+02 0.772443E+01
      112.00  0.688131E-04 0.183619E-01 0.154618E+02 0.874536E+01
      114.00  0.789475E-04 0.210320E-01 0.178195E+02 0.987270E+01
      116.00  0.903388E-04 0.240279E-01 0.204836E+02 0.111143E+02
      118.00  0.103115E-03 0.273819E-01 0.234875E+02 0.124784E+02
      122.00  0.133385E-03 0.353067E-01 0.306629E+02 0.156080E+02
      126.00  0.170996E-03 0.451180E-01 0.396749E+02 0.193318E+02
      130.00  0.217378E-03 0.571751E-01 0.509104E+02 0.237237E+02
      134.00  0.274184E-03 0.718899E-01 0.648227E+02 0.288604E+02
      138.00  0.343308E-03 0.897331E-01 0.819404E+02 0.348201E+02
      142.00  0.426913E-03 0.111240E+00 0.102877E+03 0.416817E+02
      146.00  0.527463E-03 0.137018E+00 0.128343E+03 0.495234E+02
      150.00  0.647744E-03 0.167749E+00 0.159156E+03 0.584201E+02
      154.00  0.790900E-03 0.204202E+00 0.196253E+03 0.684422E+02
      158.00  0.960460E-03 0.247235E+00 0.240706E+03 0.796529E+02
      162.00  0.116038E-02 0.297805E+00 0.293736E+03 0.921058E+02
      166.00  0.139505E-02 0.356973E+00 0.356730E+03 0.105842E+03
      170.00  0.166938E-02 0.425914E+00 0.431253E+03 0.120889E+03
      174.00  0.198874E-02 0.505916E+00 0.519069E+03 0.137250E+03
      178.00  0.235905E-02 0.598386E+00 0.622148E+03 0.154909E+03
      182.00  0.278673E-02 0.704847E+00 0.742680E+03 0.173819E+03
      186.00  0.327871E-02 0.826932E+00 0.883087E+03 0.193900E+03
      190.00  0.384244E-02 0.966386E+00 0.104602E+04 0.215034E+03
      194.00  0.448575E-02 0.112504E+01 0.123437E+04 0.237058E+03
      198.00  0.521688E-02 0.130480E+01 0.145125E+04 0.259765E+03
      202.00  0.604427E-02 0.150761E+01 0.169996E+04 0.282891E+03
      206.00  0.697639E-02 0.173541E+01 0.198397E+04 0.306117E+03
      210.00  0.802153E-02 0.199006E+01 0.230683E+04 0.329064E+03
      214.00  0.918745E-02 0.227328E+01 0.267211E+04 0.351293E+03
      218.00  0.104811E-01 0.258658E+01 0.308328E+04 0.372305E+03
      222.00  0.119079E-01 0.293112E+01 0.354355E+04 0.391553E+03
      226.00  0.134718E-01 0.330761E+01 0.405576E+04 0.408446E+03
      230.00  0.151742E-01 0.371618E+01 0.462215E+04 0.422367E+03
      234.00  0.170136E-01 0.415625E+01 0.524414E+04 0.432698E+03
      238.00  0.189849E-01 0.462642E+01 0.592214E+04 0.438838E+03
      242.00  0.210790E-01 0.512428E+01 0.665525E+04 0.440244E+03
      246.00  0.232825E-01 0.564640E+01 0.744115E+04 0.436461E+03
      250.00  0.255772E-01 0.618829E+01 0.827584E+04 0.427166E+03
      254.00  0.279405E-01 0.674438E+01 0.915368E+04 0.412204E+03
      258.00  0.303455E-01 0.730816E+01 0.100673E+05 0.391623E+03
      262.00  0.327619E-01 0.787236E+01 0.110078E+05 0.365700E+03
      266.00  0.351569E-01 0.842917E+01 0.119650E+05 0.334957E+03
      270.00  0.374965E-01 0.897056E+01 0.129276E+05 0.300154E+03
      274.00  0.397468E-01 0.948860E+01 0.138840E+05 0.262279E+03
      282.00  0.438534E-01 0.104256E+02 0.157314E+05 0.182175E+03
      290.00  0.472624E-01 0.111913E+02 0.174211E+05 0.105505E+03
      298.00  0.498394E-01 0.117567E+02 0.188879E+05 0.436445E+02
      306.00  0.515414E-01 0.121141E+02 0.200948E+05 0.677125E+01
      314.00  0.524057E-01 0.122750E+02 0.210327E+05 0.269491E+01
      322.00  0.525256E-01 0.122634E+02 0.217151E+05 0.364308E+02
      330.00  0.520245E-01 0.121097E+02 0.221701E+05 0.110392E+03
      338.00  0.510330E-01 0.118457E+02 0.224329E+05 0.224938E+03
      346.00  0.496736E-01 0.115006E+02 0.225400E+05 0.379019E+03
      354.00  0.480527E-01 0.110995E+02 0.225253E+05 0.570759E+03
      362.00  0.462567E-01 0.106627E+02 0.224181E+05 0.797893E+03
      370.00  0.443538E-01 0.102058E+02 0.222426E+05 0.105806E+04
      378.00  0.423957E-01 0.974067E+01 0.220182E+05 0.134899E+04
      386.00  0.404209E-01 0.927589E+01 0.217602E+05 0.166858E+04
      394.00  0.384570E-01 0.881758E+01 0.214802E+05 0.201496E+04
      402.00  0.365234E-01 0.836987E+01 0.211869E+05 0.238645E+04
      410.00  0.346331E-01 0.793544E+01 0.208866E+05 0.278156E+04
      418.00  0.327946E-01 0.751595E+01 0.205840E+05 0.319899E+04
      426.00  0.310133E-01 0.711232E+01 0.202823E+05 0.363754E+04
      434.00  0.292922E-01 0.672495E+01 0.199839E+05 0.409619E+04
      442.00  0.276327E-01 0.635387E+01 0.196903E+05 0.457396E+04
      450.00  0.260348E-01 0.599886E+01 0.194025E+05 0.506998E+04
      458.00  0.244980E-01 0.565952E+01 0.191211E+05 0.558339E+04
      466.00  0.230212E-01 0.533537E+01 0.188462E+05 0.611340E+04
      474.00  0.216030E-01 0.502587E+01 0.185779E+05 0.665925E+04
      482.00  0.202420E-01 0.473047E+01 0.183163E+05 0.722023E+04
      490.00  0.189367E-01 0.444863E+01 0.180611E+05 0.779563E+04
      498.00  0.176855E-01 0.417978E+01 0.178121E+05 0.838478E+04
      506.00  0.164869E-01 0.392339E+01 0.175692E+05 0.898700E+04
      514.00  0.153394E-01 0.367895E+01 0.173319E+05 0.960164E+04
      522.00  0.142415E-01 0.344594E+01 0.170999E+05 0.102280E+05
      530.00  0.131921E-01 0.322393E+01 0.168731E+05 0.108656E+05
      538.00  0.121899E-01 0.301246E+01 0.166512E+05 0.115136E+05
      546.00  0.112338E-01 0.281112E+01 0.164340E+05 0.121717E+05
      554.00  0.103226E-01 0.261953E+01 0.162212E+05 0.128391E+05
      562.00  0.945546E-02 0.243729E+01 0.160125E+05 0.135153E+05
      570.00  0.863133E-02 0.226407E+01 0.158079E+05 0.141997E+05
      578.00  0.784934E-02 0.209951E+01 0.156069E+05 0.148918E+05
      586.00  0.710867E-02 0.194331E+01 0.154096E+05 0.155910E+05
      596.00  0.623976E-02 0.175934E+01 0.151676E+05 0.164741E+05
      606.00  0.543279E-02 0.158739E+01 0.149308E+05 0.173666E+05
      616.00  0.468641E-02 0.142693E+01 0.146986E+05 0.182673E+05
      626.00  0.399938E-02 0.127746E+01 0.144709E+05 0.191754E+05
      636.00  0.337052E-02 0.113849E+01 0.142473E+05 0.200896E+05
      646.00  0.279872E-02 0.100960E+01 0.140277E+05 0.210091E+05
      656.00  0.228294E-02 0.890336E+00 0.138118E+05 0.219330E+05
      666.00  0.182219E-02 0.780309E+00 0.135995E+05 0.228604E+05
      676.00  0.141552E-02 0.679128E+00 0.133907E+05 0.237903E+05
      686.00  0.106199E-02 0.586422E+00 0.131850E+05 0.247220E+05
      696.00  0.760722E-03 0.501835E+00 0.129825E+05 0.256544E+05
      706.00  0.510852E-03 0.425026E+00 0.127829E+05 0.265868E+05
      716.00  0.311538E-03 0.355670E+00 0.125862E+05 0.275185E+05
      726.00  0.161955E-03 0.293451E+00 0.123923E+05 0.284486E+05
      736.00  0.612937E-04 0.238065E+00 0.122012E+05 0.293766E+05
      746.00  0.875476E-05 0.189219E+00 0.120127E+05 0.303017E+05
      756.00  0.355145E-05 0.146628E+00 0.118268E+05 0.312232E+05
      766.00  0.449062E-04 0.110020E+00 0.116434E+05 0.321405E+05
      776.00  0.132049E-03 0.791279E-01 0.114625E+05 0.330531E+05
      786.00  0.264219E-03 0.536962E-01 0.112840E+05 0.339602E+05
      796.00  0.440661E-03 0.334764E-01 0.111079E+05 0.348615E+05
      806.00  0.660627E-03 0.182278E-01 0.109342E+05 0.357564E+05
      816.00  0.923373E-03 0.771760E-02 0.107628E+05 0.366444E+05
      826.00  0.122816E-02 0.172014E-02 0.105936E+05 0.375250E+05
      836.00  0.157426E-02 0.170083E-04 0.104267E+05 0.383977E+05
      846.00  0.196094E-02 0.239658E-02 0.102619E+05 0.392620E+05
      856.00  0.238747E-02 0.865386E-02 0.100994E+05 0.401175E+05
      866.00  0.285313E-02 0.185902E-01 0.993888E+04 0.409638E+05
      876.00  0.335721E-02 0.320134E-01 0.978051E+04 0.418005E+05
      886.00  0.389898E-02 0.487368E-01 0.962419E+04 0.426272E+05
      896.00  0.447773E-02 0.685800E-01 0.946990E+04 0.434436E+05
      906.00  0.509275E-02 0.913680E-01 0.931761E+04 0.442492E+05
      916.00  0.574333E-02 0.116931E+00 0.916728E+04 0.450437E+05
      926.00  0.642875E-02 0.145106E+00 0.901889E+04 0.458269E+05
      936.00  0.714832E-02 0.175733E+00 0.887243E+04 0.465984E+05
      946.00  0.790134E-02 0.208658E+00 0.872787E+04 0.473580E+05
      956.00  0.868712E-02 0.243734E+00 0.858520E+04 0.481055E+05
      966.00  0.950496E-02 0.280815E+00 0.844440E+04 0.488405E+05
      976.00  0.103542E-01 0.319763E+00 0.830544E+04 0.495630E+05
      986.00  0.112341E-01 0.360443E+00 0.816831E+04 0.502727E+05
      996.00  0.121439E-01 0.402725E+00 0.803298E+04 0.509693E+05
     1006.00  0.130832E-01 0.446484E+00 0.789944E+04 0.516528E+05
     1016.00  0.140510E-01 0.491597E+00 0.776767E+04 0.523230E+05
     1026.00  0.150469E-01 0.537950E+00 0.763768E+04 0.529798E+05
     1036.00  0.160701E-01 0.585428E+00 0.750943E+04 0.536230E+05
     1046.00  0.171200E-01 0.633922E+00 0.738290E+04 0.542526E+05
     1056.00  0.181959E-01 0.683327E+00 0.725809E+04 0.548684E+05
     1066.00  0.192972E-01 0.733543E+00 0.713496E+04 0.554703E+05
     1076.00  0.204231E-01 0.784470E+00 0.701350E+04 0.560583E+05
     1086.00  0.215732E-01 0.836014E+00 0.689370E+04 0.566321E+05
     1096.00  0.227467E-01 0.888087E+00 0.677553E+04 0.571919E+05
     1106.00  0.239429E-01 0.940600E+00 0.665899E+04 0.577376E+05
     1116.00  0.251614E-01 0.993470E+00 0.654406E+04 0.582690E+05
     1126.00  0.264014E-01 0.104662E+01 0.643072E+04 0.587862E+05
     1136.00  0.276623E-01 0.109996E+01 0.631895E+04 0.592890E+05
     1146.00  0.289434E-01 0.115343E+01 0.620873E+04 0.597776E+05
     1156.00  0.302443E-01 0.120694E+01 0.610004E+04 0.602517E+05
     1166.00  0.315641E-01 0.126045E+01 0.599288E+04 0.607116E+05
     1176.00  0.329025E-01 0.131387E+01 0.588722E+04 0.611570E+05
     1186.00  0.342587E-01 0.136714E+01 0.578305E+04 0.615882E+05
     1196.00  0.356322E-01 0.142021E+01 0.568036E+04 0.620052E+05
     1206.00  0.370223E-01 0.147303E+01 0.557914E+04 0.624079E+05
     1216.00  0.384286E-01 0.152552E+01 0.547936E+04 0.627964E+05
     1226.00  0.398504E-01 0.157765E+01 0.538102E+04 0.631707E+05
     1236.00  0.412872E-01 0.162935E+01 0.528409E+04 0.635309E+05
     1246.00  0.427384E-01 0.168059E+01 0.518856E+04 0.638771E+05
     1256.00  0.442034E-01 0.173133E+01 0.509442E+04 0.642093E+05
     1266.00  0.456817E-01 0.178150E+01 0.500166E+04 0.645277E+05
     1276.00  0.471729E-01 0.183109E+01 0.491027E+04 0.648323E+05
     1286.00  0.486762E-01 0.188005E+01 0.482022E+04 0.651232E+05
     1296.00  0.501913E-01 0.192834E+01 0.473151E+04 0.654005E+05
     1306.00  0.517177E-01 0.197593E+01 0.464412E+04 0.656644E+05
     1316.00  0.532546E-01 0.202278E+01 0.455803E+04 0.659148E+05
     1326.00  0.548017E-01 0.206888E+01 0.447323E+04 0.661519E+05
     1336.00  0.563585E-01 0.211417E+01 0.438971E+04 0.663758E+05
     1346.00  0.579244E-01 0.215865E+01 0.430745E+04 0.665866E+05
     1356.00  0.594989E-01 0.220229E+01 0.422644E+04 0.667845E+05
     1366.00  0.610816E-01 0.224506E+01 0.414666E+04 0.669695E+05
     1376.00  0.626720E-01 0.228693E+01 0.406810E+04 0.671418E+05
     1386.00  0.642696E-01 0.232790E+01 0.399075E+04 0.673014E+05
     1396.00  0.658739E-01 0.236794E+01 0.391459E+04 0.674486E+05
     1406.00  0.674844E-01 0.240704E+01 0.383961E+04 0.675833E+05
     1416.00  0.691007E-01 0.244516E+01 0.376578E+04 0.677058E+05
     1426.00  0.707222E-01 0.248232E+01 0.369310E+04 0.678161E+05
     1436.00  0.723485E-01 0.251848E+01 0.362156E+04 0.679145E+05
     1446.00  0.739792E-01 0.255363E+01 0.355114E+04 0.680009E+05
     1456.00  0.756139E-01 0.258778E+01 0.348183E+04 0.680756E+05
     1466.00  0.772521E-01 0.262090E+01 0.341362E+04 0.681388E+05
     1476.00  0.788934E-01 0.265300E+01 0.334649E+04 0.681906E+05
     1486.00  0.805373E-01 0.268405E+01 0.328042E+04 0.682310E+05
     1496.00  0.821835E-01 0.271407E+01 0.321542E+04 0.682604E+05
     1506.00  0.838315E-01 0.274303E+01 0.315145E+04 0.682787E+05
     1516.00  0.854809E-01 0.277094E+01 0.308852E+04 0.682862E+05
     1526.00  0.871313E-01 0.279780E+01 0.302661E+04 0.682830E+05
     1536.00  0.887823E-01 0.282360E+01 0.296570E+04 0.682692E+05
     1546.00  0.904336E-01 0.284835E+01 0.290579E+04 0.682452E+05
     1556.00  0.920848E-01 0.287204E+01 0.284686E+04 0.682109E+05
     1566.00  0.937356E-01 0.289467E+01 0.278890E+04 0.681666E+05
     1576.00  0.953856E-01 0.291625E+01 0.273189E+04 0.681125E+05
     1586.00  0.970343E-01 0.293678E+01 0.267584E+04 0.680487E+05
     1596.00  0.986815E-01 0.295626E+01 0.262072E+04 0.679753E+05
     1606.00  0.100327E+00 0.297470E+01 0.256652E+04 0.678925E+05
     1616.00  0.101970E+00 0.299210E+01 0.251323E+04 0.678005E+05
     1626.00  0.103610E+00 0.300846E+01 0.246084E+04 0.676994E+05
     1636.00  0.105248E+00 0.302380E+01 0.240934E+04 0.675894E+05
     1646.00  0.106882E+00 0.303811E+01 0.235871E+04 0.674706E+05
     1656.00  0.108513E+00 0.305141E+01 0.230894E+04 0.673433E+05
     1666.00  0.110140E+00 0.306370E+01 0.226003E+04 0.672076E+05
     1676.00  0.111763E+00 0.307500E+01 0.221196E+04 0.670636E+05
     1686.00  0.113381E+00 0.308531E+01 0.216472E+04 0.669115E+05
     1696.00  0.114995E+00 0.309463E+01 0.211830E+04 0.667515E+05
     1706.00  0.116603E+00 0.310298E+01 0.207269E+04 0.665836E+05
     1716.00  0.118206E+00 0.311038E+01 0.202787E+04 0.664081E+05
     1726.00  0.119804E+00 0.311681E+01 0.198384E+04 0.662250E+05
     1736.00  0.121395E+00 0.312231E+01 0.194058E+04 0.660346E+05
     1746.00  0.122980E+00 0.312688E+01 0.189809E+04 0.658371E+05
     1756.00  0.124559E+00 0.313053E+01 0.185635E+04 0.656325E+05
     1766.00  0.126131E+00 0.313328E+01 0.181536E+04 0.654211E+05
     1776.00  0.127696E+00 0.313513E+01 0.177509E+04 0.652030E+05
     1786.00  0.129253E+00 0.313610E+01 0.173556E+04 0.649783E+05
     1796.00  0.130804E+00 0.313621E+01 0.169673E+04 0.647472E+05
     1806.00  0.132346E+00 0.313546E+01 0.165861E+04 0.645098E+05
     1816.00  0.133881E+00 0.313386E+01 0.162118E+04 0.642664E+05
     1826.00  0.135407E+00 0.313144E+01 0.158444E+04 0.640169E+05
     1836.00  0.136925E+00 0.312820E+01 0.154836E+04 0.637617E+05
     1846.00  0.138434E+00 0.312416E+01 0.151296E+04 0.635008E+05
     1856.00  0.139934E+00 0.311934E+01 0.147820E+04 0.632344E+05
     1866.00  0.141425E+00 0.311374E+01 0.144410E+04 0.629627E+05
     1876.00  0.142907E+00 0.310738E+01 0.141062E+04 0.626858E+05
     1886.00  0.144380E+00 0.310029E+01 0.137778E+04 0.624038E+05
     1896.00  0.145843E+00 0.309246E+01 0.134555E+04 0.621169E+05
     1906.00  0.147296E+00 0.308393E+01 0.131394E+04 0.618252E+05
     1916.00  0.148740E+00 0.307469E+01 0.128292E+04 0.615289E+05
     1926.00  0.150173E+00 0.306477E+01 0.125249E+04 0.612281E+05
     1936.00  0.151595E+00 0.305418E+01 0.122264E+04 0.609229E+05
     1946.00  0.153007E+00 0.304294E+01 0.119337E+04 0.606135E+05
     1956.00  0.154409E+00 0.303105E+01 0.116466E+04 0.603000E+05
     1966.00  0.155799E+00 0.301855E+01 0.113651E+04 0.599825E+05
     1976.00  0.157179E+00 0.300543E+01 0.110890E+04 0.596613E+05
     1986.00  0.158547E+00 0.299172E+01 0.108184E+04 0.593363E+05
     1996.00  0.159904E+00 0.297744E+01 0.105530E+04 0.590077E+05
     2006.00  0.161250E+00 0.296259E+01 0.102929E+04 0.586758E+05
     2016.00  0.162584E+00 0.294719E+01 0.100380E+04 0.583404E+05
     2026.00  0.163906E+00 0.293125E+01 0.978808E+03 0.580019E+05
     2036.00  0.165217E+00 0.291480E+01 0.954317E+03 0.576603E+05
     2046.00  0.166515E+00 0.289784E+01 0.930317E+03 0.573157E+05
     2056.00  0.167801E+00 0.288040E+01 0.906800E+03 0.569683E+05
     2066.00  0.169075E+00 0.286248E+01 0.883759E+03 0.566181E+05
     2076.00  0.170336E+00 0.284409E+01 0.861186E+03 0.562653E+05
     2086.00  0.171585E+00 0.282527E+01 0.839074E+03 0.559100E+05
     2096.00  0.172822E+00 0.280601E+01 0.817415E+03 0.555524E+05
     2106.00  0.174045E+00 0.278634E+01 0.796203E+03 0.551924E+05
     2116.00  0.175256E+00 0.276627E+01 0.775430E+03 0.548303E+05
     2126.00  0.176454E+00 0.274581E+01 0.755089E+03 0.544662E+05
     2136.00  0.177639E+00 0.272497E+01 0.735172E+03 0.541001E+05
     2146.00  0.178811E+00 0.270378E+01 0.715674E+03 0.537321E+05
     2156.00  0.179970E+00 0.268224E+01 0.696586E+03 0.533624E+05
     2166.00  0.181115E+00 0.266037E+01 0.677903E+03 0.529911E+05
     2176.00  0.182247E+00 0.263819E+01 0.659618E+03 0.526182E+05
     2186.00  0.183365E+00 0.261570E+01 0.641724E+03 0.522439E+05
     2196.00  0.184471E+00 0.259292E+01 0.624215E+03 0.518683E+05
     2206.00  0.185562E+00 0.256986E+01 0.607085E+03 0.514915E+05
     2216.00  0.186640E+00 0.254655E+01 0.590326E+03 0.511135E+05
     2226.00  0.187705E+00 0.252298E+01 0.573934E+03 0.507344E+05
     2236.00  0.188755E+00 0.249918E+01 0.557901E+03 0.503545E+05
     2246.00  0.189793E+00 0.247515E+01 0.542221E+03 0.499736E+05
     2256.00  0.190816E+00 0.245091E+01 0.526889E+03 0.495920E+05
     2266.00  0.191825E+00 0.242647E+01 0.511899E+03 0.492097E+05
     2276.00  0.192821E+00 0.240184E+01 0.497244E+03 0.488268E+05
     2286.00  0.193802E+00 0.237704E+01 0.482919E+03 0.484434E+05
     2296.00  0.194770E+00 0.235207E+01 0.468918E+03 0.480595E+05
     2306.00  0.195723E+00 0.232696E+01 0.455235E+03 0.476753E+05
     2316.00  0.196663E+00 0.230170E+01 0.441865E+03 0.472908E+05
     2326.00  0.197588E+00 0.227632E+01 0.428803E+03 0.469061E+05
     2336.00  0.198500E+00 0.225082E+01 0.416043E+03 0.465213E+05
     2346.00  0.199397E+00 0.222522E+01 0.403579E+03 0.461365E+05
     2356.00  0.200281E+00 0.219952E+01 0.391407E+03 0.457517E+05
     2366.00  0.201150E+00 0.217373E+01 0.379521E+03 0.453670E+05
     2376.00  0.202005E+00 0.214787E+01 0.367915E+03 0.449825E+05
     2386.00  0.202845E+00 0.212195E+01 0.356585E+03 0.445981E+05
     2396.00  0.203672E+00 0.209598E+01 0.345527E+03 0.442141E+05
     2406.00  0.204484E+00 0.206996E+01 0.334733E+03 0.438305E+05
     2416.00  0.205282E+00 0.204391E+01 0.324201E+03 0.434473E+05
     2426.00  0.206066E+00 0.201783E+01 0.313926E+03 0.430645E+05
     2436.00  0.206836E+00 0.199174E+01 0.303901E+03 0.426824E+05
     2446.00  0.207591E+00 0.196564E+01 0.294124E+03 0.423008E+05
     2456.00  0.208332E+00 0.193955E+01 0.284588E+03 0.419199E+05
     2466.00  0.209059E+00 0.191347E+01 0.275291E+03 0.415398E+05
     2476.00  0.209772E+00 0.188741E+01 0.266226E+03 0.411605E+05
     2486.00  0.210471E+00 0.186138E+01 0.257391E+03 0.407820E+05
     2496.00  0.211155E+00 0.183539E+01 0.248779E+03 0.404044E+05
     2506.00  0.211825E+00 0.180944E+01 0.240388E+03 0.400277E+05
     2516.00  0.212481E+00 0.178355E+01 0.232213E+03 0.396521E+05
     2526.00  0.213123E+00 0.175772E+01 0.224250E+03 0.392775E+05
     2536.00  0.213751E+00 0.173196E+01 0.216494E+03 0.389040E+05
     2546.00  0.214364E+00 0.170628E+01 0.208943E+03 0.385316E+05
     2556.00  0.214964E+00 0.168068E+01 0.201590E+03 0.381605E+05
     2566.00  0.215549E+00 0.165517E+01 0.194434E+03 0.377906E+05
     2576.00  0.216121E+00 0.162976E+01 0.187470E+03 0.374220E+05
     2586.00  0.216679E+00 0.160446E+01 0.180693E+03 0.370548E+05
     2596.00  0.217222E+00 0.157926E+01 0.174102E+03 0.366889E+05
     2606.00  0.217752E+00 0.155419E+01 0.167691E+03 0.363244E+05
     2616.00  0.218268E+00 0.152924E+01 0.161457E+03 0.359614E+05
     2626.00  0.218770E+00 0.150442E+01 0.155396E+03 0.355999E+05
     2636.00  0.219259E+00 0.147973E+01 0.149506E+03 0.352400E+05
     2646.00  0.219733E+00 0.145518E+01 0.143782E+03 0.348816E+05
     2656.00  0.220194E+00 0.143079E+01 0.138221E+03 0.345247E+05
     2666.00  0.220642E+00 0.140654E+01 0.132820E+03 0.341696E+05
     2676.00  0.221075E+00 0.138245E+01 0.127575E+03 0.338161E+05
     2686.00  0.221496E+00 0.135852E+01 0.122483E+03 0.334643E+05
     2696.00  0.221902E+00 0.133476E+01 0.117542E+03 0.331143E+05
     2706.00  0.222295E+00 0.131117E+01 0.112747E+03 0.327660E+05
     2716.00  0.222675E+00 0.128775E+01 0.108096E+03 0.324195E+05
     2726.00  0.223042E+00 0.126452E+01 0.103586E+03 0.320748E+05
     2736.00  0.223395E+00 0.124147E+01 0.992131E+02 0.317320E+05
     2746.00  0.223735E+00 0.121861E+01 0.949751E+02 0.313910E+05
     2756.00  0.224062E+00 0.119593E+01 0.908688E+02 0.310520E+05
     2766.00  0.224376E+00 0.117346E+01 0.868914E+02 0.307148E+05
     2776.00  0.224676E+00 0.115118E+01 0.830401E+02 0.303797E+05
     2786.00  0.224964E+00 0.112911E+01 0.793122E+02 0.300464E+05
     2796.00  0.225238E+00 0.110724E+01 0.757048E+02 0.297152E+05
     2806.00  0.225500E+00 0.108558E+01 0.722153E+02 0.293859E+05
     2816.00  0.225748E+00 0.106413E+01 0.688411E+02 0.290587E+05
     2826.00  0.225984E+00 0.104289E+01 0.655797E+02 0.287336E+05
     2836.00  0.226208E+00 0.102187E+01 0.624283E+02 0.284105E+05
     2846.00  0.226418E+00 0.100107E+01 0.593846E+02 0.280894E+05
     2856.00  0.226616E+00 0.980493E+00 0.564460E+02 0.277705E+05
     2866.00  0.226802E+00 0.960138E+00 0.536103E+02 0.274537E+05
     2876.00  0.226975E+00 0.940009E+00 0.508748E+02 0.271390E+05
     2886.00  0.227136E+00 0.920108E+00 0.482374E+02 0.268265E+05
     2896.00  0.227284E+00 0.900436E+00 0.456958E+02 0.265161E+05
     2906.00  0.227420E+00 0.880995E+00 0.432476E+02 0.262079E+05
     2916.00  0.227544E+00 0.861787E+00 0.408907E+02 0.259018E+05
     2926.00  0.227656E+00 0.842813E+00 0.386228E+02 0.255979E+05
     2936.00  0.227756E+00 0.824075E+00 0.364419E+02 0.252963E+05
     2946.00  0.227844E+00 0.805573E+00 0.343457E+02 0.249968E+05
     2956.00  0.227920E+00 0.787309E+00 0.323324E+02 0.246996E+05
     2966.00  0.227984E+00 0.769284E+00 0.303998E+02 0.244046E+05
     2976.00  0.228037E+00 0.751499E+00 0.285459E+02 0.241119E+05
     2986.00  0.228078E+00 0.733953E+00 0.267688E+02 0.238213E+05
     2996.00  0.228107E+00 0.716649E+00 0.250665E+02 0.235331E+05
     3006.00  0.228126E+00 0.699587E+00 0.234372E+02 0.232471E+05
     3016.00  0.228132E+00 0.682766E+00 0.218790E+02 0.229633E+05
     3026.00  0.228127E+00 0.666188E+00 0.203901E+02 0.226819E+05
     3036.00  0.228112E+00 0.649852E+00 0.189687E+02 0.224027E+05
     3046.00  0.228084E+00 0.633758E+00 0.176130E+02 0.221257E+05
     3056.00  0.228046E+00 0.617907E+00 0.163213E+02 0.218511E+05
     3066.00  0.227997E+00 0.602298E+00 0.150919E+02 0.215787E+05
     3076.00  0.227937E+00 0.586931E+00 0.139232E+02 0.213086E+05
     3086.00  0.227866E+00 0.571807E+00 0.128136E+02 0.210408E+05
     3096.00  0.227785E+00 0.556924E+00 0.117614E+02 0.207753E+05
     3106.00  0.227692E+00 0.542282E+00 0.107650E+02 0.205120E+05
     3116.00  0.227590E+00 0.527881E+00 0.982303E+01 0.202511E+05
     3126.00  0.227476E+00 0.513720E+00 0.893386E+01 0.199924E+05
     3136.00  0.227353E+00 0.499799E+00 0.809605E+01 0.197360E+05
     3146.00  0.227219E+00 0.486116E+00 0.730813E+01 0.194819E+05
     3156.00  0.227074E+00 0.472671E+00 0.656870E+01 0.192301E+05
     3166.00  0.226920E+00 0.459462E+00 0.587635E+01 0.189805E+05
     3176.00  0.226755E+00 0.446489E+00 0.522973E+01 0.187332E+05
     3186.00  0.226581E+00 0.433751E+00 0.462748E+01 0.184882E+05
     3196.00  0.226396E+00 0.421247E+00 0.406831E+01 0.182454E+05
     3206.00  0.226202E+00 0.408975E+00 0.355092E+01 0.180049E+05
     3216.00  0.225997E+00 0.396934E+00 0.307405E+01 0.177667E+05
     3226.00  0.225784E+00 0.385122E+00 0.263647E+01 0.175307E+05
     3236.00  0.225560E+00 0.373540E+00 0.223697E+01 0.172969E+05
     3246.00  0.225327E+00 0.362184E+00 0.187437E+01 0.170654E+05
     3256.00  0.225085E+00 0.351054E+00 0.154749E+01 0.168362E+05
     3266.00  0.224833E+00 0.340148E+00 0.125521E+01 0.166091E+05
     3276.00  0.224572E+00 0.329464E+00 0.996414E+00 0.163843E+05
     3286.00  0.224302E+00 0.319000E+00 0.770007E+00 0.161617E+05
     3296.00  0.224023E+00 0.308756E+00 0.574923E+00 0.159413E+05
     3306.00  0.223735E+00 0.298728E+00 0.410119E+00 0.157231E+05
     3316.00  0.223437E+00 0.288916E+00 0.274570E+00 0.155071E+05
     3326.00  0.223131E+00 0.279318E+00 0.167277E+00 0.152933E+05
     3336.00  0.222817E+00 0.269931E+00 0.872587E-01 0.150817E+05
     3346.00  0.222493E+00 0.260754E+00 0.335577E-01 0.148722E+05
     3356.00  0.222161E+00 0.251784E+00 0.523592E-02 0.146649E+05
     3366.00  0.221821E+00 0.243020E+00 0.137625E-02 0.144597E+05
     3376.00  0.221472E+00 0.234460E+00 0.210816E-01 0.142567E+05
     3386.00  0.221115E+00 0.226101E+00 0.634746E-01 0.140558E+05
     3396.00  0.220749E+00 0.217942E+00 0.127698E+00 0.138570E+05
     3406.00  0.220376E+00 0.209980E+00 0.212912E+00 0.136604E+05
     3416.00  0.219994E+00 0.202213E+00 0.318298E+00 0.134658E+05
     3426.00  0.219605E+00 0.194639E+00 0.443055E+00 0.132734E+05
     3436.00  0.219207E+00 0.187255E+00 0.586399E+00 0.130830E+05
     3446.00  0.218802E+00 0.180060E+00 0.747566E+00 0.128947E+05
     3456.00  0.218389E+00 0.173050E+00 0.925808E+00 0.127085E+05
     3466.00  0.217968E+00 0.166224E+00 0.112040E+01 0.125243E+05
     3476.00  0.217540E+00 0.159580E+00 0.133062E+01 0.123421E+05
     3486.00  0.217105E+00 0.153115E+00 0.155577E+01 0.121620E+05
     3496.00  0.216662E+00 0.146826E+00 0.179519E+01 0.119839E+05
     3506.00  0.216211E+00 0.140711E+00 0.204820E+01 0.118078E+05
     3516.00  0.215754E+00 0.134769E+00 0.231415E+01 0.116336E+05
     3526.00  0.215289E+00 0.128995E+00 0.259242E+01 0.114615E+05
     3536.00  0.214817E+00 0.123389E+00 0.288239E+01 0.112913E+05
     3546.00  0.214339E+00 0.117946E+00 0.318345E+01 0.111231E+05
     3556.00  0.213853E+00 0.112666E+00 0.349503E+01 0.109568E+05
     3566.00  0.213361E+00 0.107546E+00 0.381655E+01 0.107924E+05
     3576.00  0.212861E+00 0.102582E+00 0.414745E+01 0.106300E+05
     3586.00  0.212356E+00 0.977731E-01 0.448718E+01 0.104695E+05
     3596.00  0.211843E+00 0.931160E-01 0.483523E+01 0.103108E+05
     3606.00  0.211324E+00 0.886085E-01 0.519107E+01 0.101540E+05
     3616.00  0.210799E+00 0.842480E-01 0.555421E+01 0.999912E+04
     3626.00  0.210267E+00 0.800319E-01 0.592414E+01 0.984605E+04
     3636.00  0.209729E+00 0.759579E-01 0.630040E+01 0.969483E+04
     3646.00  0.209185E+00 0.720233E-01 0.668253E+01 0.954542E+04
     3656.00  0.208635E+00 0.682257E-01 0.707006E+01 0.939783E+04
     3666.00  0.208078E+00 0.645625E-01 0.746257E+01 0.925203E+04
     3676.00  0.207516E+00 0.610312E-01 0.785962E+01 0.910802E+04
     3686.00  0.206948E+00 0.576294E-01 0.826081E+01 0.896577E+04
     3696.00  0.206374E+00 0.543545E-01 0.866571E+01 0.882528E+04
     3706.00  0.205794E+00 0.512040E-01 0.907396E+01 0.868654E+04
     3716.00  0.205209E+00 0.481754E-01 0.948516E+01 0.854951E+04
     3726.00  0.204618E+00 0.452663E-01 0.989894E+01 0.841421E+04
     3736.00  0.204022E+00 0.424742E-01 0.103149E+02 0.828060E+04
     3746.00  0.203420E+00 0.397965E-01 0.107328E+02 0.814868E+04
     3756.00  0.202813E+00 0.372309E-01 0.111522E+02 0.801844E+04
     3766.00  0.202200E+00 0.347749E-01 0.115728E+02 0.788985E+04
     3776.00  0.201583E+00 0.324260E-01 0.119943E+02 0.776290E+04
     3786.00  0.200960E+00 0.301819E-01 0.124164E+02 0.763759E+04
     3796.00  0.200332E+00 0.280401E-01 0.128388E+02 0.751389E+04
     3806.00  0.199699E+00 0.259982E-01 0.132611E+02 0.739179E+04
     3816.00  0.199061E+00 0.240539E-01 0.136832E+02 0.727129E+04
     3826.00  0.198419E+00 0.222047E-01 0.141047E+02 0.715236E+04
     3836.00  0.197772E+00 0.204483E-01 0.145253E+02 0.703499E+04
     3846.00  0.197120E+00 0.187824E-01 0.149449E+02 0.691917E+04
     3856.00  0.196463E+00 0.172047E-01 0.153632E+02 0.680488E+04
     3866.00  0.195802E+00 0.157128E-01 0.157799E+02 0.669211E+04
     3876.00  0.195136E+00 0.143045E-01 0.161948E+02 0.658085E+04
     3886.00  0.194466E+00 0.129775E-01 0.166077E+02 0.647107E+04
     3896.00  0.193792E+00 0.117295E-01 0.170183E+02 0.636278E+04
     3906.00  0.193113E+00 0.105584E-01 0.174265E+02 0.625595E+04
     3916.00  0.192431E+00 0.946182E-02 0.178321E+02 0.615056E+04
     3926.00  0.191744E+00 0.843772E-02 0.182348E+02 0.604661E+04
     3936.00  0.191053E+00 0.748388E-02 0.186346E+02 0.594409E+04
     3946.00  0.190358E+00 0.659816E-02 0.190311E+02 0.584297E+04
     3956.00  0.189659E+00 0.577845E-02 0.194243E+02 0.574324E+04
     3966.00  0.188956E+00 0.502265E-02 0.198140E+02 0.564490E+04
     3976.00  0.188249E+00 0.432868E-02 0.201999E+02 0.554792E+04
     3986.00  0.187539E+00 0.369450E-02 0.205821E+02 0.545230E+04
     3996.00  0.186825E+00 0.311807E-02 0.209602E+02 0.535801E+04
     4006.00  0.186108E+00 0.259740E-02 0.213343E+02 0.526506E+04
     4016.00  0.185387E+00 0.213051E-02 0.217041E+02 0.517341E+04
     4026.00  0.184662E+00 0.171545E-02 0.220695E+02 0.508306E+04
     4036.00  0.183934E+00 0.135029E-02 0.224305E+02 0.499400E+04
     4046.00  0.183203E+00 0.103314E-02 0.227868E+02 0.490621E+04
     4056.00  0.182468E+00 0.762124E-03 0.231384E+02 0.481967E+04
     4066.00  0.181730E+00 0.535392E-03 0.234851E+02 0.473438E+04
     4076.00  0.180989E+00 0.351126E-03 0.238270E+02 0.465033E+04
     4086.00  0.180245E+00 0.207536E-03 0.241638E+02 0.456749E+04
     4096.00  0.179498E+00 0.102855E-03 0.244955E+02 0.448586E+04
     4106.00  0.178748E+00 0.353461E-04 0.248220E+02 0.440542E+04
     4116.00  0.177995E+00 0.330025E-05 0.251433E+02 0.432615E+04
     4126.00  0.177239E+00 0.503588E-05 0.254592E+02 0.424806E+04
     4136.00  0.176480E+00 0.388998E-04 0.257697E+02 0.417112E+04
     4146.00  0.175719E+00 0.103267E-03 0.260747E+02 0.409532E+04
     4156.00  0.174955E+00 0.196542E-03 0.263741E+02 0.402065E+04
     4166.00  0.174188E+00 0.317158E-03 0.266679E+02 0.394709E+04
     4176.00  0.173419E+00 0.463575E-03 0.269561E+02 0.387464E+04
     4186.00  0.172647E+00 0.634284E-03 0.272386E+02 0.380328E+04
     4196.00  0.171872E+00 0.827806E-03 0.275154E+02 0.373299E+04
     4206.00  0.171096E+00 0.104269E-02 0.277863E+02 0.366378E+04
     4216.00  0.170317E+00 0.127751E-02 0.280514E+02 0.359561E+04
     4226.00  0.169535E+00 0.153088E-02 0.283106E+02 0.352849E+04
     4236.00  0.168752E+00 0.180144E-02 0.285640E+02 0.346239E+04
     4246.00  0.167966E+00 0.208784E-02 0.288114E+02 0.339732E+04
     4256.00  0.167178E+00 0.238880E-02 0.290529E+02 0.333324E+04
     4266.00  0.166388E+00 0.270303E-02 0.292884E+02 0.327016E+04
     4276.00  0.165596E+00 0.302929E-02 0.295179E+02 0.320806E+04
     4286.00  0.164802E+00 0.336636E-02 0.297414E+02 0.314694E+04
     4296.00  0.164006E+00 0.371307E-02 0.299590E+02 0.308677E+04
     4306.00  0.163208E+00 0.406826E-02 0.301705E+02 0.302754E+04
     4316.00  0.162409E+00 0.443079E-02 0.303759E+02 0.296925E+04
     4326.00  0.161608E+00 0.479959E-02 0.305754E+02 0.291189E+04
     4336.00  0.160805E+00 0.517357E-02 0.307688E+02 0.285544E+04
     4346.00  0.160000E+00 0.555171E-02 0.309562E+02 0.279989E+04
     4356.00  0.159194E+00 0.593299E-02 0.311376E+02 0.274522E+04
     4366.00  0.158386E+00 0.631644E-02 0.313130E+02 0.269144E+04
     4376.00  0.157577E+00 0.670111E-02 0.314823E+02 0.263852E+04
     4386.00  0.156766E+00 0.708609E-02 0.316457E+02 0.258647E+04
     4396.00  0.155954E+00 0.747047E-02 0.318031E+02 0.253525E+04
     4406.00  0.155141E+00 0.785341E-02 0.319546E+02 0.248488E+04
     4416.00  0.154326E+00 0.823406E-02 0.321000E+02 0.243532E+04
     4426.00  0.153510E+00 0.861164E-02 0.322396E+02 0.238658E+04
     4436.00  0.152692E+00 0.898535E-02 0.323733E+02 0.233865E+04
     4446.00  0.151874E+00 0.935447E-02 0.325011E+02 0.229151E+04
     4456.00  0.151055E+00 0.971826E-02 0.326231E+02 0.224515E+04
     4466.00  0.150234E+00 0.100760E-01 0.327392E+02 0.219956E+04
     4476.00  0.149412E+00 0.104272E-01 0.328495E+02 0.215474E+04
     4486.00  0.148590E+00 0.107710E-01 0.329541E+02 0.211067E+04
     4511.00  0.146529E+00 0.115947E-01 0.331906E+02 0.200371E+04
     4536.00  0.144464E+00 0.123603E-01 0.333919E+02 0.190125E+04
     4561.00  0.142394E+00 0.130603E-01 0.335586E+02 0.180312E+04
     4586.00  0.140320E+00 0.136880E-01 0.336912E+02 0.170919E+04
     4611.00  0.138242E+00 0.142378E-01 0.337906E+02 0.161930E+04
     4636.00  0.136163E+00 0.147051E-01 0.338576E+02 0.153333E+04
     4661.00  0.134081E+00 0.150864E-01 0.338927E+02 0.145113E+04
     4686.00  0.131999E+00 0.153790E-01 0.338970E+02 0.137257E+04
     4711.00  0.129915E+00 0.155810E-01 0.338712E+02 0.129752E+04
     4736.00  0.127832E+00 0.156917E-01 0.338163E+02 0.122585E+04
     4761.00  0.125749E+00 0.157110E-01 0.337330E+02 0.115746E+04
     4786.00  0.123667E+00 0.156397E-01 0.336223E+02 0.109220E+04
     4811.00  0.121587E+00 0.154796E-01 0.334851E+02 0.102997E+04
     4836.00  0.119510E+00 0.152330E-01 0.333225E+02 0.970664E+03
     4861.00  0.117435E+00 0.149031E-01 0.331352E+02 0.914160E+03
     4886.00  0.115364E+00 0.144937E-01 0.329243E+02 0.860354E+03
     4911.00  0.113297E+00 0.140093E-01 0.326907E+02 0.809144E+03
     4936.00  0.111234E+00 0.134552E-01 0.324354E+02 0.760428E+03
     4961.00  0.109176E+00 0.128372E-01 0.321593E+02 0.714110E+03
     4986.00  0.107123E+00 0.121616E-01 0.318634E+02 0.670094E+03
     5011.00  0.105077E+00 0.114354E-01 0.315487E+02 0.628289E+03
     5036.00  0.103037E+00 0.106659E-01 0.312161E+02 0.588606E+03
     5061.00  0.101004E+00 0.986120E-02 0.308665E+02 0.550957E+03
     5086.00  0.989783E-01 0.902954E-02 0.305008E+02 0.515261E+03
     5111.00  0.969607E-01 0.817975E-02 0.301200E+02 0.481436E+03
     5136.00  0.949515E-01 0.732098E-02 0.297250E+02 0.449403E+03
     5161.00  0.929512E-01 0.646276E-02 0.293167E+02 0.419088E+03
     5186.00  0.909603E-01 0.561490E-02 0.288960E+02 0.390416E+03
     5211.00  0.889791E-01 0.478753E-02 0.284638E+02 0.363318E+03
     5236.00  0.870082E-01 0.399102E-02 0.280208E+02 0.337724E+03
     5261.00  0.850480E-01 0.323594E-02 0.275680E+02 0.313569E+03
     5286.00  0.830990E-01 0.253308E-02 0.271061E+02 0.290788E+03
     5311.00  0.811616E-01 0.189338E-02 0.266361E+02 0.269322E+03
     5336.00  0.792362E-01 0.132790E-02 0.261586E+02 0.249109E+03
     5361.00  0.773234E-01 0.847819E-03 0.256744E+02 0.230093E+03
     5386.00  0.754235E-01 0.464363E-03 0.251844E+02 0.212219E+03
     5411.00  0.735369E-01 0.188816E-03 0.246891E+02 0.195433E+03
     5436.00  0.716641E-01 0.324741E-04 0.241894E+02 0.179684E+03
     5461.00  0.698055E-01 0.661932E-05 0.236859E+02 0.164923E+03
     5511.00  0.661326E-01 0.391281E-03 0.226703E+02 0.138176E+03
     5561.00  0.625216E-01 0.143182E-02 0.216475E+02 0.114834E+03
     5611.00  0.589758E-01 0.321543E-02 0.206222E+02 0.945637E+02
     5661.00  0.554986E-01 0.582674E-02 0.195989E+02 0.770603E+02
     5711.00  0.520934E-01 0.934709E-02 0.185817E+02 0.620419E+02
     5761.00  0.487634E-01 0.138539E-01 0.175747E+02 0.492493E+02
     5811.00  0.455121E-01 0.194202E-01 0.165812E+02 0.384444E+02
     5861.00  0.423428E-01 0.261138E-01 0.156045E+02 0.294092E+02
     5911.00  0.392590E-01 0.339971E-01 0.146475E+02 0.219441E+02
     5961.00  0.362639E-01 0.431265E-01 0.137128E+02 0.158669E+02
     6011.00  0.333611E-01 0.535522E-01 0.128027E+02 0.110115E+02
     6061.00  0.305539E-01 0.653174E-01 0.119194E+02 0.722691E+01
     6111.00  0.278459E-01 0.784586E-01 0.110646E+02 0.437599E+01
     6161.00  0.252404E-01 0.930052E-01 0.102398E+02 0.233460E+01
     6211.00  0.227411E-01 0.108979E+00 0.944637E+01 0.990557E+00
     6261.00  0.203514E-01 0.126395E+00 0.868535E+01 0.242773E+00
     6311.00  0.180749E-01 0.145259E+00 0.795759E+01 0.367635E-03
     6361.00  0.159154E-01 0.165572E+00 0.726376E+01 0.181876E+00
     6411.00  0.138762E-01 0.187324E+00 0.660431E+01 0.714492E+00
     6461.00  0.119612E-01 0.210501E+00 0.597952E+01 0.153336E+01
     6511.00  0.101741E-01 0.235080E+00 0.538951E+01 0.258092E+01
     6561.00  0.851833E-02 0.261030E+00 0.483422E+01 0.380626E+01
     6611.00  0.699779E-02 0.288314E+00 0.431346E+01 0.516457E+01
     6661.00  0.561613E-02 0.316888E+00 0.382690E+01 0.661657E+01
     6711.00  0.437707E-02 0.346701E+00 0.337409E+01 0.812805E+01
     6761.00  0.328434E-02 0.377696E+00 0.295448E+01 0.966933E+01
     6811.00  0.234166E-02 0.409810E+00 0.256739E+01 0.112149E+02
     6861.00  0.155272E-02 0.442973E+00 0.221207E+01 0.127430E+02
     6911.00  0.921212E-03 0.477111E+00 0.188769E+01 0.142352E+02
     6961.00  0.450813E-03 0.512146E+00 0.159332E+01 0.156762E+02
     7011.00  0.145155E-03 0.547993E+00 0.132800E+01 0.170533E+02
     7061.00  0.783674E-05 0.584564E+00 0.109069E+01 0.183562E+02
     7111.00  0.424122E-04 0.621767E+00 0.880315E+00 0.195769E+02
     7161.00  0.252382E-03 0.659506E+00 0.695750E+00 0.207092E+02
     7211.00  0.641184E-03 0.697683E+00 0.535842E+00 0.217487E+02
     7261.00  0.121219E-02 0.736197E+00 0.399412E+00 0.226922E+02
     7311.00  0.196868E-02 0.774944E+00 0.285260E+00 0.235382E+02
     7361.00  0.291385E-02 0.813820E+00 0.192175E+00 0.242861E+02
     7411.00  0.405080E-02 0.852718E+00 0.118935E+00 0.249362E+02
     7511.00  0.691189E-02 0.930154E+00 0.271038E-01 0.259489E+02
     7611.00  0.105743E-01 0.100639E+01 0.405532E-04 0.265941E+02
     7711.00  0.150584E-01 0.108059E+01 0.282025E-01 0.268978E+02
     7811.00  0.203815E-01 0.115191E+01 0.102351E+00 0.268910E+02
     7911.00  0.265585E-01 0.121957E+01 0.213655E+00 0.266079E+02
     8011.00  0.336008E-01 0.128280E+01 0.353773E+00 0.260840E+02
     8111.00  0.415162E-01 0.134091E+01 0.514921E+00 0.253548E+02
     8211.00  0.503086E-01 0.139327E+01 0.689926E+00 0.244548E+02
     8311.00  0.599779E-01 0.143931E+01 0.872257E+00 0.234170E+02
     8411.00  0.705193E-01 0.147856E+01 0.105605E+01 0.222719E+02
     8511.00  0.819232E-01 0.151061E+01 0.123614E+01 0.210478E+02
     8611.00  0.941751E-01 0.153515E+01 0.140801E+01 0.197702E+02
     8711.00  0.107255E+00 0.155195E+01 0.156784E+01 0.184617E+02
     8811.00  0.121139E+00 0.156089E+01 0.171247E+01 0.171423E+02
     8911.00  0.135795E+00 0.156193E+01 0.183937E+01 0.158295E+02
     9011.00  0.151187E+00 0.155511E+01 0.194662E+01 0.145379E+02
     9111.00  0.167274E+00 0.154057E+01 0.203286E+01 0.132800E+02
     9211.00  0.184008E+00 0.151854E+01 0.209728E+01 0.120659E+02
     9311.00  0.201336E+00 0.148930E+01 0.213955E+01 0.109037E+02
     9411.00  0.219200E+00 0.145324E+01 0.215981E+01 0.979969E+01
     9511.00  0.237534E+00 0.141080E+01 0.215858E+01 0.875852E+01
     9611.00  0.256270E+00 0.136247E+01 0.213676E+01 0.778334E+01
     9711.00  0.275335E+00 0.130881E+01 0.209555E+01 0.687600E+01
     9811.00  0.294650E+00 0.125042E+01 0.203643E+01 0.603722E+01
     9911.00  0.314131E+00 0.118793E+01 0.196107E+01 0.526676E+01
    10011.00  0.333692E+00 0.112200E+01 0.187135E+01 0.456355E+01
    10111.00  0.353243E+00 0.105333E+01 0.176927E+01 0.392585E+01
    10211.00  0.372690E+00 0.982587E+00 0.165691E+01 0.335134E+01
    10311.00  0.391940E+00 0.910485E+00 0.153643E+01 0.283725E+01
    10411.00  0.410895E+00 0.837711E+00 0.140998E+01 0.238046E+01
    10511.00  0.429456E+00 0.764941E+00 0.127970E+01 0.197758E+01
    10611.00  0.447526E+00 0.692832E+00 0.114770E+01 0.162504E+01
    10711.00  0.465004E+00 0.622014E+00 0.101599E+01 0.131916E+01
    10811.00  0.481795E+00 0.553083E+00 0.886492E+00 0.105620E+01
    10911.00  0.497801E+00 0.486595E+00 0.761017E+00 0.832441E+00
    11011.00  0.512930E+00 0.423062E+00 0.641224E+00 0.644192E+00
    11111.00  0.527090E+00 0.362947E+00 0.528620E+00 0.487859E+00
    11211.00  0.540193E+00 0.306661E+00 0.424546E+00 0.359966E+00
    11311.00  0.552157E+00 0.254559E+00 0.330168E+00 0.257183E+00
    11411.00  0.562904E+00 0.206939E+00 0.246470E+00 0.176352E+00
    11511.00  0.572361E+00 0.164040E+00 0.174250E+00 0.114500E+00
    11611.00  0.580463E+00 0.126041E+00 0.114120E+00 0.688515E-01
    11711.00  0.587151E+00 0.930627E-01 0.665062E-01 0.368402E-01
    11811.00  0.592372E+00 0.651668E-01 0.316556E-01 0.161124E-01
    11911.00  0.596083E+00 0.423573E-01 0.963833E-02 0.452938E-02
    12011.00  0.598248E+00 0.245829E-01 0.357427E-03 0.167450E-03
    12111.00  0.598840E+00 0.117400E-01 0.355743E-02 0.131438E-02
    12211.00  0.597842E+00 0.367500E-02 0.188352E-01 0.646441E-02
    12311.00  0.595244E+00 0.188359E-03 0.456519E-01 0.143111E-01
    12411.00  0.591049E+00 0.103827E-02 0.833458E-01 0.237388E-01
    12511.00  0.585267E+00 0.594504E-02 0.131146E+00 0.338124E-01
    12611.00  0.577918E+00 0.145956E-01 0.188186E+00 0.437665E-01
    12711.00  0.569033E+00 0.266482E-01 0.253521E+00 0.529932E-01
    12811.00  0.558651E+00 0.417375E-01 0.326138E+00 0.610292E-01
    12911.00  0.546821E+00 0.594794E-01 0.404975E+00 0.675437E-01
    13011.00  0.533603E+00 0.794761E-01 0.488933E+00 0.723236E-01
    13111.00  0.519062E+00 0.101321E+00 0.576891E+00 0.752612E-01
    13211.00  0.503277E+00 0.124604E+00 0.667723E+00 0.763403E-01
    13311.00  0.486331E+00 0.148917E+00 0.760305E+00 0.756231E-01
    13411.00  0.468316E+00 0.173854E+00 0.853531E+00 0.732372E-01
    13511.00  0.449331E+00 0.199024E+00 0.946326E+00 0.693640E-01
    13611.00  0.429481E+00 0.224045E+00 0.103765E+01 0.642258E-01
    13711.00  0.408878E+00 0.248557E+00 0.112653E+01 0.580758E-01
    13811.00  0.387639E+00 0.272220E+00 0.121202E+01 0.511874E-01
    13911.00  0.365884E+00 0.294716E+00 0.129328E+01 0.438447E-01
    14011.00  0.343738E+00 0.315757E+00 0.136951E+01 0.363339E-01
    14111.00  0.321329E+00 0.335085E+00 0.144000E+01 0.289358E-01
    14211.00  0.298786E+00 0.352469E+00 0.150414E+01 0.219187E-01
    14311.00  0.276239E+00 0.367714E+00 0.156138E+01 0.155333E-01
    14411.00  0.253820E+00 0.380660E+00 0.161126E+01 0.100069E-01
    14511.00  0.231657E+00 0.391176E+00 0.165344E+01 0.554019E-02
    14611.00  0.209880E+00 0.399172E+00 0.168764E+01 0.230403E-02
    14711.00  0.188614E+00 0.404588E+00 0.171367E+01 0.437092E-03
    14811.00  0.167983E+00 0.407399E+00 0.173144E+01 0.446772E-04
    14911.00  0.148106E+00 0.407615E+00 0.174095E+01 0.119808E-02
    15011.00  0.129097E+00 0.405274E+00 0.174226E+01 0.393472E-02
    15111.00  0.111064E+00 0.400447E+00 0.173553E+01 0.825888E-02
    15211.00  0.941098E-01 0.393232E+00 0.172096E+01 0.141431E-01
    15311.00  0.783295E-01 0.383754E+00 0.169886E+01 0.215301E-01
    15411.00  0.638107E-01 0.372161E+00 0.166958E+01 0.303347E-01
    15511.00  0.506333E-01 0.358624E+00 0.163351E+01 0.404470E-01
    15611.00  0.388679E-01 0.343331E+00 0.159112E+01 0.517351E-01
    15711.00  0.285763E-01 0.326486E+00 0.154291E+01 0.640480E-01
    15811.00  0.198108E-01 0.308309E+00 0.148942E+01 0.772194E-01
    15911.00  0.126138E-01 0.289027E+00 0.143120E+01 0.910706E-01
    16011.00  0.701764E-02 0.268874E+00 0.136886E+01 0.105414E+00
    16111.00  0.304451E-02 0.248091E+00 0.130299E+01 0.120058E+00
    16211.00  0.706158E-03 0.226920E+00 0.123422E+01 0.134807E+00
    16311.00  0.397502E-05 0.205600E+00 0.116316E+01 0.149467E+00
    16411.00  0.929023E-03 0.184367E+00 0.109043E+01 0.163850E+00
    16511.00  0.346214E-02 0.163452E+00 0.101665E+01 0.177772E+00
    16611.00  0.757410E-02 0.143074E+00 0.942399E+00 0.191061E+00
    16711.00  0.132259E-01 0.123443E+00 0.868269E+00 0.203554E+00
    16811.00  0.203691E-01 0.104756E+00 0.794810E+00 0.215105E+00
    16911.00  0.289460E-01 0.871945E-01 0.722550E+00 0.225579E+00
    17011.00  0.388905E-01 0.709223E-01 0.651985E+00 0.234863E+00
    17111.00  0.501280E-01 0.560864E-01 0.583579E+00 0.242857E+00
    17211.00  0.625766E-01 0.428140E-01 0.517755E+00 0.249482E+00
    17311.00  0.761471E-01 0.312127E-01 0.454900E+00 0.254677E+00
    17411.00  0.907442E-01 0.213687E-01 0.395359E+00 0.258402E+00
    17511.00  0.106266E+00 0.133475E-01 0.339431E+00 0.260633E+00
    17611.00  0.122608E+00 0.719281E-02 0.287375E+00 0.261367E+00
    17711.00  0.139658E+00 0.292718E-02 0.239406E+00 0.260619E+00
    17811.00  0.157302E+00 0.551999E-03 0.195692E+00 0.258419E+00
    17911.00  0.175424E+00 0.480661E-04 0.156359E+00 0.254817E+00
    18011.00  0.193905E+00 0.137628E-02 0.121490E+00 0.249874E+00
    18111.00  0.212625E+00 0.447850E-02 0.911251E-01 0.243668E+00
    18211.00  0.231463E+00 0.927865E-02 0.652655E-01 0.236288E+00
    18311.00  0.250301E+00 0.156839E-01 0.438726E-01 0.227834E+00
    18411.00  0.269018E+00 0.235862E-01 0.268714E-01 0.218414E+00
    18511.00  0.287498E+00 0.328633E-01 0.141525E-01 0.208144E+00
    18611.00  0.305626E+00 0.433810E-01 0.557474E-02 0.197148E+00
    18711.00  0.323293E+00 0.549946E-01 0.967817E-03 0.185553E+00
    18811.00  0.340390E+00 0.675501E-01 0.134980E-03 0.173486E+00
    18911.00  0.356815E+00 0.808870E-01 0.285606E-02 0.161079E+00
    19011.00  0.372472E+00 0.948395E-01 0.889045E-02 0.148462E+00
    19111.00  0.387269E+00 0.109238E+00 0.179801E-01 0.135761E+00
    19311.00  0.413949E+00 0.138692E+00 0.442249E-01 0.110605E+00
    19511.00  0.436261E+00 0.167896E+00 0.792944E-01 0.865463E-01
    19711.00  0.453728E+00 0.195559E+00 0.120807E+00 0.644132E-01
    19911.00  0.466001E+00 0.220497E+00 0.166386E+00 0.449008E-01
    20111.00  0.472870E+00 0.241682E+00 0.213738E+00 0.285532E-01
    20311.00  0.474253E+00 0.258270E+00 0.260725E+00 0.157521E-01
    20511.00  0.470207E+00 0.269636E+00 0.305426E+00 0.671502E-02
    20711.00  0.460913E+00 0.275386E+00 0.346179E+00 0.149954E-02
    20911.00  0.446672E+00 0.275365E+00 0.381613E+00 0.140512E-04
    21111.00  0.427895E+00 0.269658E+00 0.410676E+00 0.203332E-02
    21311.00  0.405080E+00 0.258574E+00 0.432628E+00 0.721800E-02
    21511.00  0.378811E+00 0.242632E+00 0.447050E+00 0.151368E-01
    21711.00  0.349727E+00 0.222528E+00 0.453818E+00 0.252900E-01
    21911.00  0.318513E+00 0.199113E+00 0.453087E+00 0.371338E-01
    22111.00  0.285878E+00 0.173347E+00 0.445255E+00 0.501036E-01
    22311.00  0.252536E+00 0.146265E+00 0.430924E+00 0.636359E-01
    22511.00  0.219191E+00 0.118935E+00 0.410867E+00 0.771893E-01
    22711.00  0.186518E+00 0.924201E-01 0.385976E+00 0.902603E-01
    22911.00  0.155149E+00 0.677374E-01 0.357230E+00 0.102400E+00
    23111.00  0.125657E+00 0.458237E-01 0.325644E+00 0.113222E+00
    23311.00  0.985495E-01 0.275047E-01 0.292235E+00 0.122414E+00
    23511.00  0.742531E-01 0.134676E-01 0.257987E+00 0.129741E+00
    23711.00  0.531112E-01 0.424170E-02 0.223818E+00 0.135045E+00
    23911.00  0.353773E-01 0.183048E-03 0.190560E+00 0.138247E+00
    24111.00  0.212138E-01 0.146693E-02 0.158931E+00 0.139340E+00
    24311.00  0.106917E-01 0.808620E-02 0.129531E+00 0.138386E+00
    24511.00  0.379382E-02 0.198559E-01 0.102825E+00 0.135505E+00
    24711.00  0.419121E-03 0.364238E-01 0.791484E-01 0.130871E+00
    24911.00  0.389333E-03 0.572857E-01 0.587013E-01 0.124694E+00
    25111.00  0.345710E-02 0.818064E-01 0.415620E-01 0.117218E+00
    25311.00  0.931541E-02 0.109242E+00 0.276934E-01 0.108706E+00
    25511.00  0.176081E-01 0.138768E+00 0.169586E-01 0.994292E-01
    25711.00  0.279408E-01 0.169505E+00 0.913536E-02 0.896602E-01
    25911.00  0.398928E-01 0.200552E+00 0.393438E-02 0.796623E-01
    26111.00  0.530280E-01 0.231008E+00 0.101642E-02 0.696816E-01
    26311.00  0.669072E-01 0.260008E+00 0.104938E-04 0.599420E-01
    26511.00  0.810977E-01 0.286741E+00 0.530912E-03 0.506387E-01
    26711.00  0.951843E-01 0.310477E+00 0.219322E-02 0.419356E-01
    26911.00  0.108778E+00 0.330587E+00 0.462838E-02 0.339621E-01
         IE==>      4            5            6            7
        1.00  0.119799E-14 0.114249E-15 0.187844E-12 0.263089E-13
        2.00  0.146440E-11 0.136951E-12 0.229611E-09 0.316831E-10
        3.00  0.883549E-10 0.810137E-11 0.138534E-07 0.188309E-08
        4.00  0.156387E-08 0.140562E-09 0.245197E-06 0.328295E-07
        5.00  0.141835E-07 0.124941E-08 0.222377E-05 0.293241E-06
        6.00  0.844614E-07 0.729033E-08 0.132420E-04 0.171959E-05
        7.00  0.376806E-06 0.318629E-07 0.590747E-04 0.755375E-05
        8.00  0.136229E-05 0.112830E-06 0.213571E-03 0.268869E-04
        9.00  0.419807E-05 0.340488E-06 0.658129E-03 0.815635E-04
       10.00  0.114126E-04 0.906229E-06 0.178910E-02 0.218250E-03
       11.00  0.280472E-04 0.217995E-05 0.439671E-02 0.527871E-03
       12.00  0.634414E-04 0.482544E-05 0.994486E-02 0.117497E-02
       13.00  0.133889E-03 0.996359E-05 0.209874E-01 0.243983E-02
       14.00  0.266432E-03 0.193937E-04 0.417626E-01 0.477646E-02
       15.00  0.504094E-03 0.358825E-04 0.790131E-01 0.888953E-02
       16.00  0.912903E-03 0.635311E-04 0.143087E+00 0.158337E-01
       17.00  0.159109E-02 0.108227E-03 0.249377E+00 0.271385E-01
       18.00  0.268087E-02 0.178191E-03 0.420168E+00 0.449614E-01
       19.00  0.438331E-02 0.284620E-03 0.686965E+00 0.722733E-01
       20.00  0.697668E-02 0.442434E-03 0.109337E+01 0.113077E+00
       21.00  0.108390E-01 0.671126E-03 0.169861E+01 0.172665E+00
       22.00  0.164752E-01 0.995719E-03 0.258178E+01 0.257912E+00
       23.00  0.245495E-01 0.144782E-02 0.384695E+01 0.377610E+00
       24.00  0.359240E-01 0.206677E-02 0.562914E+01 0.542849E+00
       25.00  0.517033E-01 0.290088E-02 0.810141E+01 0.767434E+00
       26.00  0.732876E-01 0.400874E-02 0.114830E+02 0.106835E+01
       27.00  0.102432E+00 0.546062E-02 0.160489E+02 0.146625E+01
       28.00  0.141318E+00 0.733983E-02 0.221406E+02 0.198604E+01
       29.00  0.192629E+00 0.974422E-02 0.301784E+02 0.265741E+01
       30.00  0.259642E+00 0.127876E-01 0.406755E+02 0.351549E+01
       31.00  0.346329E+00 0.166010E-01 0.542537E+02 0.460150E+01
       32.00  0.457467E+00 0.213342E-01 0.716609E+02 0.596339E+01
       33.00  0.598765E+00 0.271570E-01 0.937908E+02 0.765658E+01
       34.00  0.777002E+00 0.342600E-01 0.121705E+03 0.974467E+01
       35.00  0.100018E+01 0.428560E-01 0.156656E+03 0.123001E+02
       36.00  0.127771E+01 0.531806E-01 0.200114E+03 0.154051E+02
       37.00  0.162055E+01 0.654925E-01 0.253800E+03 0.191521E+02
       38.00  0.204149E+01 0.800742E-01 0.319709E+03 0.236448E+02
       39.00  0.255528E+01 0.972319E-01 0.400154E+03 0.289985E+02
       40.00  0.317897E+01 0.117295E+00 0.497799E+03 0.353412E+02
       42.00  0.483699E+01 0.167567E+00 0.757359E+03 0.515718E+02
       44.00  0.720743E+01 0.233956E+00 0.112840E+04 0.736347E+02
       46.00  0.105375E+02 0.319812E+00 0.164960E+04 0.103065E+03
       48.00  0.151418E+02 0.428678E+00 0.237013E+04 0.141647E+03
       50.00  0.214156E+02 0.564164E+00 0.335181E+04 0.191419E+03
       52.00  0.298505E+02 0.729783E+00 0.467148E+04 0.254673E+03
       54.00  0.410520E+02 0.928747E+00 0.642375E+04 0.333941E+03
       56.00  0.557587E+02 0.116373E+01 0.872403E+04 0.431974E+03
       58.00  0.748646E+02 0.143659E+01 0.117120E+05 0.551711E+03
       60.00  0.994436E+02 0.174810E+01 0.155553E+05 0.696236E+03
       62.00  0.130777E+03 0.209760E+01 0.204540E+05 0.868721E+03
       64.00  0.170382E+03 0.248269E+01 0.266452E+05 0.107236E+04
       66.00  0.220048E+03 0.289893E+01 0.344079E+05 0.131027E+04
       68.00  0.281870E+03 0.333951E+01 0.440690E+05 0.158543E+04
       70.00  0.358288E+03 0.379502E+01 0.560090E+05 0.190051E+04
       72.00  0.452128E+03 0.425326E+01 0.706690E+05 0.225779E+04
       74.00  0.566652E+03 0.469922E+01 0.885571E+05 0.265901E+04
       76.00  0.705602E+03 0.511510E+01 0.110257E+06 0.310520E+04
       78.00  0.873258E+03 0.548064E+01 0.136435E+06 0.359658E+04
       80.00  0.107450E+04 0.577360E+01 0.167852E+06 0.413236E+04
       82.00  0.131486E+04 0.597057E+01 0.205369E+06 0.471058E+04
       84.00  0.160060E+04 0.604814E+01 0.249962E+06 0.532802E+04
       86.00  0.193879E+04 0.598442E+01 0.302729E+06 0.597997E+04
       88.00  0.233736E+04 0.576116E+01 0.364908E+06 0.666017E+04
       90.00  0.280523E+04 0.536639E+01 0.437882E+06 0.736063E+04
       92.00  0.335235E+04 0.479771E+01 0.523200E+06 0.807160E+04
       94.00  0.398980E+04 0.406648E+01 0.622584E+06 0.878148E+04
       96.00  0.472992E+04 0.320278E+01 0.737953E+06 0.947682E+04
       98.00  0.558638E+04 0.226148E+01 0.871429E+06 0.101424E+05
      100.00  0.657431E+04 0.132945E+01 0.102536E+07 0.107613E+05
      102.00  0.771044E+04 0.534041E+00 0.120235E+07 0.113151E+05
      104.00  0.901319E+04 0.530558E-01 0.140525E+07 0.117844E+05
      106.00  0.105028E+05 0.126332E+00 0.163721E+07 0.121489E+05
      108.00  0.122017E+05 0.106918E+01 0.190168E+07 0.123881E+05
      110.00  0.141341E+05 0.328782E+01 0.220245E+07 0.124820E+05
      112.00  0.163269E+05 0.729714E+01 0.254367E+07 0.124119E+05
      114.00  0.188093E+05 0.137409E+02 0.292986E+07 0.121615E+05
      116.00  0.216132E+05 0.234146E+02 0.336597E+07 0.117179E+05
      118.00  0.247734E+05 0.372917E+02 0.385738E+07 0.110734E+05
      122.00  0.323170E+05 0.826180E+02 0.502997E+07 0.918676E+04
      126.00  0.417831E+05 0.162269E+03 0.650066E+07 0.661495E+04
      130.00  0.535743E+05 0.293923E+03 0.833169E+07 0.369811E+04
      134.00  0.681618E+05 0.501944E+03 0.105958E+08 0.111140E+04
      138.00  0.860942E+05 0.819311E+03 0.133775E+08 0.449756E+01
      142.00  0.108008E+06 0.128996E+04 0.167750E+08 0.217877E+04
      146.00  0.134638E+06 0.197163E+04 0.209014E+08 0.103093E+05
      150.00  0.166831E+06 0.293924E+04 0.258869E+08 0.282196E+05
      154.00  0.205554E+06 0.428899E+04 0.318802E+08 0.612183E+05
      158.00  0.251913E+06 0.614311E+04 0.390512E+08 0.116507E+06
      162.00  0.307166E+06 0.865556E+04 0.475927E+08 0.203670E+06
      166.00  0.372740E+06 0.120186E+05 0.577235E+08 0.335260E+06
      170.00  0.450245E+06 0.164704E+05 0.696899E+08 0.527488E+06
      174.00  0.541489E+06 0.223037E+05 0.837684E+08 0.801026E+06
      178.00  0.648491E+06 0.298759E+05 0.100268E+09 0.118194E+07
      182.00  0.773494E+06 0.396192E+05 0.119530E+09 0.170273E+07
      186.00  0.918970E+06 0.520535E+05 0.141931E+09 0.240354E+07
      190.00  0.108763E+07 0.677985E+05 0.167884E+09 0.333345E+07
      194.00  0.128241E+07 0.875876E+05 0.197835E+09 0.455190E+07
      198.00  0.150647E+07 0.112282E+06 0.232263E+09 0.613016E+07
      202.00  0.176317E+07 0.142881E+06 0.271678E+09 0.815288E+07
      206.00  0.205600E+07 0.180538E+06 0.316607E+09 0.107194E+08
      210.00  0.238857E+07 0.226565E+06 0.367592E+09 0.139453E+08
      214.00  0.276445E+07 0.282434E+06 0.425170E+09 0.179626E+08
      218.00  0.318710E+07 0.349781E+06 0.489861E+09 0.229211E+08
      222.00  0.365974E+07 0.430387E+06 0.562141E+09 0.289872E+08
      226.00  0.418515E+07 0.526163E+06 0.642421E+09 0.363432E+08
      230.00  0.476550E+07 0.639106E+06 0.731015E+09 0.451847E+08
      234.00  0.540210E+07 0.771259E+06 0.828106E+09 0.557162E+08
      238.00  0.609521E+07 0.924632E+06 0.933711E+09 0.681464E+08
      242.00  0.684376E+07 0.110113E+07 0.104765E+10 0.826801E+08
      246.00  0.764520E+07 0.130244E+07 0.116950E+10 0.995103E+08
      250.00  0.849530E+07 0.152996E+07 0.129861E+10 0.118808E+09
      254.00  0.938810E+07 0.178467E+07 0.143404E+10 0.140711E+09
      258.00  0.103159E+08 0.206701E+07 0.157461E+10 0.165316E+09
      262.00  0.112696E+08 0.237689E+07 0.171889E+10 0.192668E+09
      266.00  0.122386E+08 0.271356E+07 0.186526E+10 0.222755E+09
      270.00  0.132113E+08 0.307560E+07 0.201197E+10 0.255502E+09
      274.00  0.141759E+08 0.346102E+07 0.215718E+10 0.290774E+09
      282.00  0.160329E+08 0.429121E+07 0.243590E+10 0.368071E+09
      290.00  0.177225E+08 0.517902E+07 0.268823E+10 0.452572E+09
      298.00  0.191792E+08 0.609679E+07 0.290435E+10 0.541802E+09
      306.00  0.203667E+08 0.701876E+07 0.307891E+10 0.633309E+09
      314.00  0.212773E+08 0.792438E+07 0.321096E+10 0.724996E+09
      322.00  0.219261E+08 0.879957E+07 0.330296E+10 0.815303E+09
      330.00  0.223428E+08 0.963661E+07 0.335960E+10 0.903238E+09
      338.00  0.225642E+08 0.104330E+08 0.338657E+10 0.988306E+09
      346.00  0.226281E+08 0.111900E+08 0.338969E+10 0.107039E+10
      354.00  0.225692E+08 0.119111E+08 0.337429E+10 0.114964E+10
      362.00  0.224176E+08 0.126007E+08 0.334498E+10 0.122631E+10
      370.00  0.221980E+08 0.132636E+08 0.330551E+10 0.130074E+10
      378.00  0.219302E+08 0.139045E+08 0.325888E+10 0.137328E+10
      386.00  0.216296E+08 0.145277E+08 0.320745E+10 0.144427E+10
      394.00  0.213080E+08 0.151368E+08 0.315298E+10 0.151401E+10
      402.00  0.209741E+08 0.157351E+08 0.309679E+10 0.158277E+10
      410.00  0.206343E+08 0.163250E+08 0.303984E+10 0.165075E+10
      418.00  0.202931E+08 0.169087E+08 0.298280E+10 0.171813E+10
      426.00  0.199539E+08 0.174876E+08 0.292618E+10 0.178504E+10
      434.00  0.196190E+08 0.180633E+08 0.287030E+10 0.185160E+10
      442.00  0.192898E+08 0.186366E+08 0.281540E+10 0.191788E+10
      450.00  0.189673E+08 0.192082E+08 0.276160E+10 0.198394E+10
      458.00  0.186520E+08 0.197786E+08 0.270897E+10 0.204981E+10
      466.00  0.183440E+08 0.203481E+08 0.265754E+10 0.211551E+10
      474.00  0.180434E+08 0.209169E+08 0.260732E+10 0.218103E+10
      482.00  0.177502E+08 0.214849E+08 0.255829E+10 0.224638E+10
      490.00  0.174642E+08 0.220523E+08 0.251041E+10 0.231155E+10
      498.00  0.171851E+08 0.226190E+08 0.246366E+10 0.237652E+10
      506.00  0.169126E+08 0.231848E+08 0.241800E+10 0.244126E+10
      514.00  0.166464E+08 0.237494E+08 0.237336E+10 0.250574E+10
      522.00  0.163863E+08 0.243127E+08 0.232970E+10 0.256993E+10
      530.00  0.161319E+08 0.248745E+08 0.228699E+10 0.263380E+10
      538.00  0.158830E+08 0.254346E+08 0.224518E+10 0.269732E+10
      546.00  0.156393E+08 0.259927E+08 0.220423E+10 0.276046E+10
      554.00  0.154006E+08 0.265487E+08 0.216411E+10 0.282319E+10
      562.00  0.151667E+08 0.271022E+08 0.212479E+10 0.288547E+10
      570.00  0.149373E+08 0.276530E+08 0.208622E+10 0.294727E+10
      578.00  0.147122E+08 0.282009E+08 0.204837E+10 0.300856E+10
      586.00  0.144912E+08 0.287455E+08 0.201122E+10 0.306930E+10
      596.00  0.142204E+08 0.294215E+08 0.196572E+10 0.314442E+10
      606.00  0.139555E+08 0.300917E+08 0.192122E+10 0.321858E+10
      616.00  0.136962E+08 0.307557E+08 0.187767E+10 0.329172E+10
      626.00  0.134420E+08 0.314129E+08 0.183503E+10 0.336379E+10
      636.00  0.131929E+08 0.320629E+08 0.179327E+10 0.343472E+10
      646.00  0.129484E+08 0.327051E+08 0.175233E+10 0.350445E+10
      656.00  0.127085E+08 0.333392E+08 0.171221E+10 0.357293E+10
      666.00  0.124729E+08 0.339647E+08 0.167286E+10 0.364013E+10
      676.00  0.122415E+08 0.345814E+08 0.163426E+10 0.370598E+10
      686.00  0.120141E+08 0.351887E+08 0.159639E+10 0.377044E+10
      696.00  0.117905E+08 0.357863E+08 0.155923E+10 0.383347E+10
      706.00  0.115706E+08 0.363738E+08 0.152275E+10 0.389503E+10
      716.00  0.113544E+08 0.369510E+08 0.148694E+10 0.395508E+10
      726.00  0.111417E+08 0.375176E+08 0.145179E+10 0.401360E+10
      736.00  0.109324E+08 0.380734E+08 0.141729E+10 0.407057E+10
      746.00  0.107265E+08 0.386181E+08 0.138342E+10 0.412595E+10
      756.00  0.105239E+08 0.391517E+08 0.135017E+10 0.417974E+10
      766.00  0.103244E+08 0.396738E+08 0.131752E+10 0.423190E+10
      776.00  0.101282E+08 0.401843E+08 0.128548E+10 0.428242E+10
      786.00  0.993502E+07 0.406830E+08 0.125403E+10 0.433129E+10
      796.00  0.974492E+07 0.411700E+08 0.122316E+10 0.437851E+10
      806.00  0.955783E+07 0.416450E+08 0.119286E+10 0.442406E+10
      816.00  0.937369E+07 0.421080E+08 0.116313E+10 0.446795E+10
      826.00  0.919246E+07 0.425588E+08 0.113396E+10 0.451015E+10
      836.00  0.901407E+07 0.429973E+08 0.110533E+10 0.455066E+10
      846.00  0.883848E+07 0.434235E+08 0.107725E+10 0.458948E+10
      856.00  0.866566E+07 0.438372E+08 0.104970E+10 0.462661E+10
      866.00  0.849556E+07 0.442385E+08 0.102267E+10 0.466204E+10
      876.00  0.832814E+07 0.446273E+08 0.996165E+09 0.469579E+10
      886.00  0.816337E+07 0.450035E+08 0.970169E+09 0.472784E+10
      896.00  0.800120E+07 0.453671E+08 0.944677E+09 0.475821E+10
      906.00  0.784159E+07 0.457180E+08 0.919682E+09 0.478689E+10
      916.00  0.768450E+07 0.460561E+08 0.895176E+09 0.481389E+10
      926.00  0.752990E+07 0.463816E+08 0.871153E+09 0.483922E+10
      936.00  0.737777E+07 0.466945E+08 0.847608E+09 0.486289E+10
      946.00  0.722807E+07 0.469947E+08 0.824535E+09 0.488491E+10
      956.00  0.708078E+07 0.472824E+08 0.801928E+09 0.490529E+10
      966.00  0.693587E+07 0.475575E+08 0.779781E+09 0.492406E+10
      976.00  0.679330E+07 0.478201E+08 0.758087E+09 0.494121E+10
      986.00  0.665305E+07 0.480702E+08 0.736840E+09 0.495677E+10
      996.00  0.651508E+07 0.483080E+08 0.716034E+09 0.497076E+10
     1006.00  0.637938E+07 0.485334E+08 0.695665E+09 0.498318E+10
     1016.00  0.624592E+07 0.487466E+08 0.675726E+09 0.499407E+10
     1026.00  0.611468E+07 0.489478E+08 0.656212E+09 0.500343E+10
     1036.00  0.598563E+07 0.491370E+08 0.637118E+09 0.501131E+10
     1046.00  0.585874E+07 0.493142E+08 0.618436E+09 0.501770E+10
     1056.00  0.573398E+07 0.494796E+08 0.600162E+09 0.502263E+10
     1066.00  0.561133E+07 0.496333E+08 0.582289E+09 0.502612E+10
     1076.00  0.549076E+07 0.497753E+08 0.564812E+09 0.502820E+10
     1086.00  0.537225E+07 0.499057E+08 0.547725E+09 0.502887E+10
     1096.00  0.525576E+07 0.500248E+08 0.531022E+09 0.502817E+10
     1106.00  0.514128E+07 0.501326E+08 0.514698E+09 0.502613E+10
     1116.00  0.502878E+07 0.502293E+08 0.498747E+09 0.502275E+10
     1126.00  0.491824E+07 0.503149E+08 0.483164E+09 0.501808E+10
     1136.00  0.480962E+07 0.503896E+08 0.467942E+09 0.501211E+10
     1146.00  0.470290E+07 0.504534E+08 0.453076E+09 0.500489E+10
     1156.00  0.459805E+07 0.505065E+08 0.438560E+09 0.499643E+10
     1166.00  0.449506E+07 0.505491E+08 0.424390E+09 0.498675E+10
     1176.00  0.439390E+07 0.505812E+08 0.410559E+09 0.497589E+10
     1186.00  0.429455E+07 0.506031E+08 0.397063E+09 0.496386E+10
     1196.00  0.419698E+07 0.506149E+08 0.383896E+09 0.495070E+10
     1206.00  0.410117E+07 0.506168E+08 0.371053E+09 0.493644E+10
     1216.00  0.400710E+07 0.506088E+08 0.358529E+09 0.492108E+10
     1226.00  0.391474E+07 0.505911E+08 0.346317E+09 0.490467E+10
     1236.00  0.382407E+07 0.505640E+08 0.334414E+09 0.488722E+10
     1246.00  0.373507E+07 0.505274E+08 0.322814E+09 0.486876E+10
     1256.00  0.364772E+07 0.504817E+08 0.311511E+09 0.484933E+10
     1266.00  0.356200E+07 0.504270E+08 0.300501E+09 0.482893E+10
     1276.00  0.347788E+07 0.503634E+08 0.289779E+09 0.480761E+10
     1286.00  0.339535E+07 0.502911E+08 0.279340E+09 0.478539E+10
     1296.00  0.331437E+07 0.502103E+08 0.269179E+09 0.476230E+10
     1306.00  0.323494E+07 0.501212E+08 0.259291E+09 0.473835E+10
     1316.00  0.315702E+07 0.500238E+08 0.249670E+09 0.471358E+10
     1326.00  0.308060E+07 0.499184E+08 0.240313E+09 0.468801E+10
     1336.00  0.300565E+07 0.498051E+08 0.231213E+09 0.466165E+10
     1346.00  0.293216E+07 0.496840E+08 0.222367E+09 0.463455E+10
     1356.00  0.286010E+07 0.495554E+08 0.213770E+09 0.460672E+10
     1366.00  0.278945E+07 0.494193E+08 0.205416E+09 0.457819E+10
     1376.00  0.272019E+07 0.492760E+08 0.197302E+09 0.454898E+10
     1386.00  0.265230E+07 0.491256E+08 0.189423E+09 0.451912E+10
     1396.00  0.258576E+07 0.489683E+08 0.181773E+09 0.448862E+10
     1406.00  0.252055E+07 0.488042E+08 0.174349E+09 0.445752E+10
     1416.00  0.245665E+07 0.486334E+08 0.167146E+09 0.442583E+10
     1426.00  0.239403E+07 0.484561E+08 0.160159E+09 0.439357E+10
     1436.00  0.233268E+07 0.482724E+08 0.153385E+09 0.436078E+10
     1446.00  0.227259E+07 0.480826E+08 0.146818E+09 0.432746E+10
     1456.00  0.221372E+07 0.478868E+08 0.140456E+09 0.429366E+10
     1466.00  0.215607E+07 0.476851E+08 0.134292E+09 0.425938E+10
     1476.00  0.209961E+07 0.474776E+08 0.128325E+09 0.422465E+10
     1486.00  0.204432E+07 0.472646E+08 0.122548E+09 0.418949E+10
     1496.00  0.199019E+07 0.470462E+08 0.116958E+09 0.415392E+10
     1506.00  0.193720E+07 0.468226E+08 0.111552E+09 0.411797E+10
     1516.00  0.188533E+07 0.465938E+08 0.106324E+09 0.408164E+10
     1526.00  0.183456E+07 0.463600E+08 0.101272E+09 0.404498E+10
     1536.00  0.178487E+07 0.461215E+08 0.963915E+08 0.400798E+10
     1546.00  0.173625E+07 0.458782E+08 0.916784E+08 0.397068E+10
     1556.00  0.168868E+07 0.456305E+08 0.871293E+08 0.393310E+10
     1566.00  0.164215E+07 0.453784E+08 0.827403E+08 0.389526E+10
     1576.00  0.159663E+07 0.451222E+08 0.785078E+08 0.385716E+10
     1586.00  0.155211E+07 0.448618E+08 0.744283E+08 0.381884E+10
     1596.00  0.150857E+07 0.445976E+08 0.704981E+08 0.378032E+10
     1606.00  0.146600E+07 0.443295E+08 0.667137E+08 0.374159E+10
     1616.00  0.142438E+07 0.440577E+08 0.630717E+08 0.370270E+10
     1626.00  0.138369E+07 0.437825E+08 0.595687E+08 0.366365E+10
     1636.00  0.134392E+07 0.435038E+08 0.562013E+08 0.362445E+10
     1646.00  0.130505E+07 0.432219E+08 0.529662E+08 0.358514E+10
     1656.00  0.126707E+07 0.429369E+08 0.498602E+08 0.354572E+10
     1666.00  0.122996E+07 0.426489E+08 0.468801E+08 0.350621E+10
     1676.00  0.119371E+07 0.423581E+08 0.440228E+08 0.346662E+10
     1686.00  0.115830E+07 0.420645E+08 0.412850E+08 0.342697E+10
     1696.00  0.112371E+07 0.417683E+08 0.386638E+08 0.338728E+10
     1706.00  0.108994E+07 0.414695E+08 0.361561E+08 0.334756E+10
     1716.00  0.105696E+07 0.411684E+08 0.337590E+08 0.330782E+10
     1726.00  0.102477E+07 0.408650E+08 0.314695E+08 0.326807E+10
     1736.00  0.993344E+06 0.405595E+08 0.292849E+08 0.322833E+10
     1746.00  0.962673E+06 0.402519E+08 0.272024E+08 0.318862E+10
     1756.00  0.932744E+06 0.399424E+08 0.252190E+08 0.314894E+10
     1766.00  0.903542E+06 0.396311E+08 0.233323E+08 0.310932E+10
     1776.00  0.875054E+06 0.393182E+08 0.215394E+08 0.306975E+10
     1786.00  0.847267E+06 0.390036E+08 0.198377E+08 0.303026E+10
     1796.00  0.820168E+06 0.386876E+08 0.182248E+08 0.299085E+10
     1806.00  0.793744E+06 0.383701E+08 0.166980E+08 0.295154E+10
     1816.00  0.767982E+06 0.380514E+08 0.152549E+08 0.291234E+10
     1826.00  0.742870E+06 0.377316E+08 0.138930E+08 0.287325E+10
     1836.00  0.718395E+06 0.374106E+08 0.126100E+08 0.283430E+10
     1846.00  0.694546E+06 0.370887E+08 0.114034E+08 0.279548E+10
     1856.00  0.671310E+06 0.367660E+08 0.102711E+08 0.275681E+10
     1866.00  0.648676E+06 0.364424E+08 0.921075E+07 0.271830E+10
     1876.00  0.626631E+06 0.361182E+08 0.822012E+07 0.267995E+10
     1886.00  0.605165E+06 0.357934E+08 0.729704E+07 0.264179E+10
     1896.00  0.584266E+06 0.354682E+08 0.643939E+07 0.260381E+10
     1906.00  0.563923E+06 0.351425E+08 0.564508E+07 0.256602E+10
     1916.00  0.544124E+06 0.348165E+08 0.491206E+07 0.252844E+10
     1926.00  0.524859E+06 0.344902E+08 0.423834E+07 0.249107E+10
     1936.00  0.506117E+06 0.341638E+08 0.362194E+07 0.245391E+10
     1946.00  0.487888E+06 0.338373E+08 0.306094E+07 0.241697E+10
     1956.00  0.470160E+06 0.335109E+08 0.255346E+07 0.238027E+10
     1966.00  0.452924E+06 0.331845E+08 0.209765E+07 0.234381E+10
     1976.00  0.436170E+06 0.328583E+08 0.169172E+07 0.230759E+10
     1986.00  0.419888E+06 0.325323E+08 0.133389E+07 0.227162E+10
     1996.00  0.404068E+06 0.322066E+08 0.102243E+07 0.223591E+10
     2006.00  0.388699E+06 0.318813E+08 0.755658E+06 0.220046E+10
     2016.00  0.373774E+06 0.315565E+08 0.531916E+06 0.216528E+10
     2026.00  0.359281E+06 0.312321E+08 0.349587E+06 0.213037E+10
     2036.00  0.345213E+06 0.309083E+08 0.207091E+06 0.209574E+10
     2046.00  0.331559E+06 0.305852E+08 0.102882E+06 0.206139E+10
     2056.00  0.318312E+06 0.302628E+08 0.354522E+05 0.202732E+10
     2066.00  0.305461E+06 0.299411E+08 0.332501E+04 0.199355E+10
     2076.00  0.292999E+06 0.296202E+08 0.506007E+04 0.196007E+10
     2086.00  0.280917E+06 0.293003E+08 0.392504E+05 0.192689E+10
     2096.00  0.269207E+06 0.289812E+08 0.104522E+06 0.189401E+10
     2106.00  0.257860E+06 0.286632E+08 0.199535E+06 0.186144E+10
     2116.00  0.246868E+06 0.283462E+08 0.322979E+06 0.182918E+10
     2126.00  0.236224E+06 0.280303E+08 0.473579E+06 0.179723E+10
     2136.00  0.225919E+06 0.277156E+08 0.650089E+06 0.176560E+10
     2146.00  0.215946E+06 0.274021E+08 0.851295E+06 0.173428E+10
     2156.00  0.206297E+06 0.270898E+08 0.107601E+07 0.170328E+10
     2166.00  0.196965E+06 0.267788E+08 0.132309E+07 0.167260E+10
     2176.00  0.187942E+06 0.264691E+08 0.159140E+07 0.164225E+10
     2186.00  0.179221E+06 0.261608E+08 0.187985E+07 0.161223E+10
     2196.00  0.170796E+06 0.258540E+08 0.218737E+07 0.158253E+10
     2206.00  0.162658E+06 0.255486E+08 0.251292E+07 0.155316E+10
     2216.00  0.154802E+06 0.252448E+08 0.285550E+07 0.152412E+10
     2226.00  0.147221E+06 0.249425E+08 0.321413E+07 0.149542E+10
     2236.00  0.139907E+06 0.246418E+08 0.358783E+07 0.146705E+10
     2246.00  0.132855E+06 0.243427E+08 0.397569E+07 0.143901E+10
     2256.00  0.126058E+06 0.240453E+08 0.437680E+07 0.141131E+10
     2266.00  0.119510E+06 0.237496E+08 0.479028E+07 0.138395E+10
     2276.00  0.113205E+06 0.234556E+08 0.521528E+07 0.135692E+10
     2286.00  0.107136E+06 0.231634E+08 0.565097E+07 0.133022E+10
     2296.00  0.101298E+06 0.228730E+08 0.609654E+07 0.130386E+10
     2306.00  0.956849E+05 0.225843E+08 0.655121E+07 0.127784E+10
     2316.00  0.902909E+05 0.222976E+08 0.701423E+07 0.125216E+10
     2326.00  0.851105E+05 0.220127E+08 0.748486E+07 0.122681E+10
     2336.00  0.801381E+05 0.217297E+08 0.796240E+07 0.120180E+10
     2346.00  0.753684E+05 0.214486E+08 0.844613E+07 0.117713E+10
     2356.00  0.707960E+05 0.211695E+08 0.893541E+07 0.115278E+10
     2366.00  0.664158E+05 0.208923E+08 0.942957E+07 0.112878E+10
     2376.00  0.622226E+05 0.206172E+08 0.992800E+07 0.110510E+10
     2386.00  0.582114E+05 0.203440E+08 0.104301E+08 0.108176E+10
     2396.00  0.543773E+05 0.200729E+08 0.109352E+08 0.105875E+10
     2406.00  0.507155E+05 0.198038E+08 0.114429E+08 0.103607E+10
     2416.00  0.472213E+05 0.195367E+08 0.119525E+08 0.101372E+10
     2426.00  0.438901E+05 0.192718E+08 0.124635E+08 0.991697E+09
     2436.00  0.407173E+05 0.190089E+08 0.129755E+08 0.970000E+09
     2446.00  0.376985E+05 0.187481E+08 0.134878E+08 0.948628E+09
     2456.00  0.348293E+05 0.184895E+08 0.140001E+08 0.927580E+09
     2466.00  0.321054E+05 0.182330E+08 0.145119E+08 0.906854E+09
     2476.00  0.295227E+05 0.179787E+08 0.150228E+08 0.886447E+09
     2486.00  0.270771E+05 0.177265E+08 0.155322E+08 0.866359E+09
     2496.00  0.247645E+05 0.174764E+08 0.160399E+08 0.846587E+09
     2506.00  0.225810E+05 0.172286E+08 0.165454E+08 0.827130E+09
     2516.00  0.205228E+05 0.169829E+08 0.170483E+08 0.807985E+09
     2526.00  0.185860E+05 0.167394E+08 0.175483E+08 0.789151E+09
     2536.00  0.167671E+05 0.164981E+08 0.180451E+08 0.770625E+09
     2546.00  0.150624E+05 0.162591E+08 0.185382E+08 0.752406E+09
     2556.00  0.134683E+05 0.160222E+08 0.190274E+08 0.734490E+09
     2566.00  0.119814E+05 0.157876E+08 0.195125E+08 0.716876E+09
     2576.00  0.105982E+05 0.155551E+08 0.199930E+08 0.699562E+09
     2586.00  0.931558E+04 0.153249E+08 0.204687E+08 0.682545E+09
     2596.00  0.813016E+04 0.150970E+08 0.209394E+08 0.665823E+09
     2606.00  0.703880E+04 0.148712E+08 0.214047E+08 0.649393E+09
     2616.00  0.603838E+04 0.146477E+08 0.218645E+08 0.633253E+09
     2626.00  0.512588E+04 0.144265E+08 0.223186E+08 0.617399E+09
     2636.00  0.429833E+04 0.142074E+08 0.227667E+08 0.601831E+09
     2646.00  0.355283E+04 0.139906E+08 0.232085E+08 0.586544E+09
     2656.00  0.288654E+04 0.137760E+08 0.236440E+08 0.571536E+09
     2666.00  0.229668E+04 0.135637E+08 0.240729E+08 0.556805E+09
     2676.00  0.178056E+04 0.133536E+08 0.244951E+08 0.542348E+09
     2686.00  0.133552E+04 0.131457E+08 0.249104E+08 0.528161E+09
     2696.00  0.958975E+03 0.129400E+08 0.253186E+08 0.514244E+09
     2706.00  0.648409E+03 0.127365E+08 0.257196E+08 0.500591E+09
     2716.00  0.401353E+03 0.125353E+08 0.261133E+08 0.487202E+09
     2726.00  0.215398E+03 0.123363E+08 0.264996E+08 0.474072E+09
     2736.00  0.881960E+02 0.121394E+08 0.268782E+08 0.461199E+09
     2746.00  0.174531E+02 0.119448E+08 0.272492E+08 0.448580E+09
     2756.00  0.931021E+00 0.117524E+08 0.276124E+08 0.436213E+09
     2766.00  0.364460E+02 0.115621E+08 0.279678E+08 0.424093E+09
     2776.00  0.121868E+03 0.113740E+08 0.283152E+08 0.412219E+09
     2786.00  0.255118E+03 0.111881E+08 0.286546E+08 0.400587E+09
     2796.00  0.434171E+03 0.110044E+08 0.289858E+08 0.389195E+09
     2806.00  0.657050E+03 0.108228E+08 0.293090E+08 0.378039E+09
     2816.00  0.921830E+03 0.106433E+08 0.296239E+08 0.367117E+09
     2826.00  0.122663E+04 0.104660E+08 0.299306E+08 0.356425E+09
     2836.00  0.156963E+04 0.102908E+08 0.302290E+08 0.345962E+09
     2846.00  0.194904E+04 0.101178E+08 0.305191E+08 0.335722E+09
     2856.00  0.236313E+04 0.994680E+07 0.308008E+08 0.325705E+09
     2866.00  0.281020E+04 0.977794E+07 0.310742E+08 0.315906E+09
     2876.00  0.328861E+04 0.961117E+07 0.313392E+08 0.306323E+09
     2886.00  0.379677E+04 0.944647E+07 0.315959E+08 0.296953E+09
     2896.00  0.433310E+04 0.928384E+07 0.318441E+08 0.287792E+09
     2906.00  0.489609E+04 0.912326E+07 0.320839E+08 0.278839E+09
     2916.00  0.548427E+04 0.896473E+07 0.323154E+08 0.270089E+09
     2926.00  0.609620E+04 0.880822E+07 0.325385E+08 0.261541E+09
     2936.00  0.673048E+04 0.865374E+07 0.327532E+08 0.253191E+09
     2946.00  0.738577E+04 0.850125E+07 0.329597E+08 0.245036E+09
     2956.00  0.806074E+04 0.835077E+07 0.331578E+08 0.237073E+09
     2966.00  0.875411E+04 0.820226E+07 0.333476E+08 0.229299E+09
     2976.00  0.946464E+04 0.805573E+07 0.335293E+08 0.221713E+09
     2986.00  0.101911E+05 0.791115E+07 0.337027E+08 0.214309E+09
     2996.00  0.109324E+05 0.776851E+07 0.338680E+08 0.207087E+09
     3006.00  0.116873E+05 0.762780E+07 0.340252E+08 0.200042E+09
     3016.00  0.124547E+05 0.748901E+07 0.341743E+08 0.193173E+09
     3026.00  0.132336E+05 0.735211E+07 0.343154E+08 0.186476E+09
     3036.00  0.140230E+05 0.721710E+07 0.344485E+08 0.179948E+09
     3046.00  0.148218E+05 0.708396E+07 0.345738E+08 0.173587E+09
     3056.00  0.156290E+05 0.695268E+07 0.346912E+08 0.167390E+09
     3066.00  0.164437E+05 0.682324E+07 0.348009E+08 0.161354E+09
     3076.00  0.172650E+05 0.669563E+07 0.349029E+08 0.155476E+09
     3086.00  0.180920E+05 0.656983E+07 0.349972E+08 0.149754E+09
     3096.00  0.189239E+05 0.644584E+07 0.350840E+08 0.144186E+09
     3106.00  0.197598E+05 0.632362E+07 0.351633E+08 0.138767E+09
     3116.00  0.205989E+05 0.620318E+07 0.352352E+08 0.133496E+09
     3126.00  0.214405E+05 0.608448E+07 0.352998E+08 0.128370E+09
     3136.00  0.222838E+05 0.596753E+07 0.353572E+08 0.123387E+09
     3146.00  0.231281E+05 0.585229E+07 0.354073E+08 0.118544E+09
     3156.00  0.239726E+05 0.573877E+07 0.354504E+08 0.113837E+09
     3166.00  0.248168E+05 0.562693E+07 0.354865E+08 0.109266E+09
     3176.00  0.256600E+05 0.551677E+07 0.355157E+08 0.104827E+09
     3186.00  0.265014E+05 0.540827E+07 0.355380E+08 0.100517E+09
     3196.00  0.273407E+05 0.530141E+07 0.355537E+08 0.963348E+08
     3206.00  0.281771E+05 0.519619E+07 0.355627E+08 0.922773E+08
     3216.00  0.290101E+05 0.509257E+07 0.355651E+08 0.883422E+08
     3226.00  0.298391E+05 0.499055E+07 0.355611E+08 0.845270E+08
     3236.00  0.306638E+05 0.489011E+07 0.355507E+08 0.808295E+08
     3246.00  0.314835E+05 0.479124E+07 0.355341E+08 0.772473E+08
     3256.00  0.322978E+05 0.469392E+07 0.355113E+08 0.737780E+08
     3266.00  0.331062E+05 0.459813E+07 0.354824E+08 0.704193E+08
     3276.00  0.339084E+05 0.450386E+07 0.354476E+08 0.671691E+08
     3286.00  0.347038E+05 0.441110E+07 0.354068E+08 0.640249E+08
     3296.00  0.354921E+05 0.431981E+07 0.353604E+08 0.609847E+08
     3306.00  0.362730E+05 0.423000E+07 0.353082E+08 0.580462E+08
     3316.00  0.370459E+05 0.414164E+07 0.352504E+08 0.552072E+08
     3326.00  0.378107E+05 0.405473E+07 0.351872E+08 0.524657E+08
     3336.00  0.385670E+05 0.396923E+07 0.351186E+08 0.498194E+08
     3346.00  0.393144E+05 0.388514E+07 0.350447E+08 0.472664E+08
     3356.00  0.400527E+05 0.380244E+07 0.349657E+08 0.448045E+08
     3366.00  0.407815E+05 0.372112E+07 0.348816E+08 0.424318E+08
     3376.00  0.415007E+05 0.364116E+07 0.347925E+08 0.401462E+08
     3386.00  0.422100E+05 0.356255E+07 0.346985E+08 0.379457E+08
     3396.00  0.429090E+05 0.348526E+07 0.345998E+08 0.358284E+08
     3406.00  0.435977E+05 0.340929E+07 0.344964E+08 0.337923E+08
     3416.00  0.442758E+05 0.333462E+07 0.343884E+08 0.318356E+08
     3426.00  0.449430E+05 0.326122E+07 0.342760E+08 0.299564E+08
     3436.00  0.455992E+05 0.318910E+07 0.341592E+08 0.281528E+08
     3446.00  0.462443E+05 0.311823E+07 0.340381E+08 0.264230E+08
     3456.00  0.468780E+05 0.304859E+07 0.339129E+08 0.247653E+08
     3466.00  0.475003E+05 0.298018E+07 0.337836E+08 0.231778E+08
     3476.00  0.481109E+05 0.291297E+07 0.336503E+08 0.216588E+08
     3486.00  0.487098E+05 0.284696E+07 0.335132E+08 0.202066E+08
     3496.00  0.492968E+05 0.278212E+07 0.333723E+08 0.188195E+08
     3506.00  0.498718E+05 0.271844E+07 0.332277E+08 0.174959E+08
     3516.00  0.504347E+05 0.265591E+07 0.330795E+08 0.162340E+08
     3526.00  0.509855E+05 0.259451E+07 0.329278E+08 0.150324E+08
     3536.00  0.515241E+05 0.253423E+07 0.327728E+08 0.138894E+08
     3546.00  0.520503E+05 0.247505E+07 0.326144E+08 0.128034E+08
     3556.00  0.525642E+05 0.241696E+07 0.324529E+08 0.117729E+08
     3566.00  0.530657E+05 0.235994E+07 0.322882E+08 0.107965E+08
     3576.00  0.535546E+05 0.230399E+07 0.321206E+08 0.987258E+07
     3586.00  0.540311E+05 0.224907E+07 0.319500E+08 0.899974E+07
     3596.00  0.544951E+05 0.219519E+07 0.317765E+08 0.817652E+07
     3606.00  0.549465E+05 0.214233E+07 0.316004E+08 0.740154E+07
     3616.00  0.553854E+05 0.209046E+07 0.314215E+08 0.667339E+07
     3626.00  0.558117E+05 0.203959E+07 0.312401E+08 0.599073E+07
     3636.00  0.562254E+05 0.198969E+07 0.310562E+08 0.535222E+07
     3646.00  0.566266E+05 0.194076E+07 0.308700E+08 0.475655E+07
     3656.00  0.570153E+05 0.189277E+07 0.306814E+08 0.420243E+07
     3666.00  0.573914E+05 0.184571E+07 0.304906E+08 0.368859E+07
     3676.00  0.577550E+05 0.179958E+07 0.302976E+08 0.321380E+07
     3686.00  0.581062E+05 0.175435E+07 0.301026E+08 0.277683E+07
     3696.00  0.584450E+05 0.171002E+07 0.299056E+08 0.237650E+07
     3706.00  0.587714E+05 0.166658E+07 0.297068E+08 0.201163E+07
     3716.00  0.590855E+05 0.162400E+07 0.295061E+08 0.168108E+07
     3726.00  0.593873E+05 0.158227E+07 0.293037E+08 0.138371E+07
     3736.00  0.596769E+05 0.154139E+07 0.290996E+08 0.111842E+07
     3746.00  0.599544E+05 0.150134E+07 0.288940E+08 0.884138E+06
     3756.00  0.602198E+05 0.146211E+07 0.286868E+08 0.679790E+06
     3766.00  0.604731E+05 0.142368E+07 0.284782E+08 0.504342E+06
     3776.00  0.607146E+05 0.138605E+07 0.282683E+08 0.356775E+06
     3786.00  0.609441E+05 0.134920E+07 0.280571E+08 0.236091E+06
     3796.00  0.611620E+05 0.131312E+07 0.278447E+08 0.141316E+06
     3806.00  0.613681E+05 0.127780E+07 0.276311E+08 0.714919E+05
     3816.00  0.615627E+05 0.124322E+07 0.274165E+08 0.256840E+05
     3826.00  0.617457E+05 0.120937E+07 0.272008E+08 0.297663E+04
     3836.00  0.619174E+05 0.117625E+07 0.269843E+08 0.247414E+04
     3846.00  0.620778E+05 0.114384E+07 0.267669E+08 0.233004E+05
     3856.00  0.622270E+05 0.111213E+07 0.265486E+08 0.645987E+05
     3866.00  0.623651E+05 0.108110E+07 0.263297E+08 0.125531E+06
     3876.00  0.624923E+05 0.105076E+07 0.261101E+08 0.205280E+06
     3886.00  0.626086E+05 0.102108E+07 0.258899E+08 0.303043E+06
     3896.00  0.627141E+05 0.992051E+06 0.256691E+08 0.418041E+06
     3906.00  0.628090E+05 0.963671E+06 0.254478E+08 0.549508E+06
     3916.00  0.628934E+05 0.935924E+06 0.252261E+08 0.696700E+06
     3926.00  0.629674E+05 0.908800E+06 0.250041E+08 0.858888E+06
     3936.00  0.630311E+05 0.882288E+06 0.247817E+08 0.103536E+07
     3946.00  0.630846E+05 0.856380E+06 0.245591E+08 0.122543E+07
     3956.00  0.631281E+05 0.831063E+06 0.243363E+08 0.142841E+07
     3966.00  0.631617E+05 0.806328E+06 0.241133E+08 0.164364E+07
     3976.00  0.631855E+05 0.782166E+06 0.238902E+08 0.187049E+07
     3986.00  0.631997E+05 0.758566E+06 0.236671E+08 0.210833E+07
     3996.00  0.632044E+05 0.735518E+06 0.234440E+08 0.235654E+07
     4006.00  0.631996E+05 0.713014E+06 0.232210E+08 0.261452E+07
     4016.00  0.631857E+05 0.691042E+06 0.229980E+08 0.288171E+07
     4026.00  0.631625E+05 0.669595E+06 0.227753E+08 0.315752E+07
     4036.00  0.631304E+05 0.648662E+06 0.225527E+08 0.344142E+07
     4046.00  0.630895E+05 0.628234E+06 0.223303E+08 0.373287E+07
     4056.00  0.630398E+05 0.608303E+06 0.221083E+08 0.403135E+07
     4066.00  0.629815E+05 0.588859E+06 0.218866E+08 0.433634E+07
     4076.00  0.629147E+05 0.569894E+06 0.216652E+08 0.464737E+07
     4086.00  0.628397E+05 0.551398E+06 0.214443E+08 0.496394E+07
     4096.00  0.627564E+05 0.533364E+06 0.212239E+08 0.528560E+07
     4106.00  0.626651E+05 0.515782E+06 0.210039E+08 0.561190E+07
     4116.00  0.625659E+05 0.498645E+06 0.207845E+08 0.594239E+07
     4126.00  0.624589E+05 0.481943E+06 0.205656E+08 0.627665E+07
     4136.00  0.623443E+05 0.465669E+06 0.203474E+08 0.661427E+07
     4146.00  0.622222E+05 0.449815E+06 0.201298E+08 0.695484E+07
     4156.00  0.620927E+05 0.434373E+06 0.199129E+08 0.729799E+07
     4166.00  0.619560E+05 0.419334E+06 0.196967E+08 0.764332E+07
     4176.00  0.618122E+05 0.404691E+06 0.194813E+08 0.799049E+07
     4186.00  0.616614E+05 0.390437E+06 0.192667E+08 0.833913E+07
     4196.00  0.615039E+05 0.376564E+06 0.190528E+08 0.868891E+07
     4206.00  0.613396E+05 0.363064E+06 0.188398E+08 0.903949E+07
     4216.00  0.611688E+05 0.349930E+06 0.186277E+08 0.939056E+07
     4226.00  0.609916E+05 0.337155E+06 0.184165E+08 0.974181E+07
     4236.00  0.608081E+05 0.324731E+06 0.182063E+08 0.100929E+08
     4246.00  0.606184E+05 0.312653E+06 0.179970E+08 0.104436E+08
     4256.00  0.604228E+05 0.300911E+06 0.177886E+08 0.107937E+08
     4266.00  0.602212E+05 0.289501E+06 0.175813E+08 0.111428E+08
     4276.00  0.600140E+05 0.278415E+06 0.173750E+08 0.114906E+08
     4286.00  0.598011E+05 0.267646E+06 0.171698E+08 0.118370E+08
     4296.00  0.595827E+05 0.257188E+06 0.169657E+08 0.121817E+08
     4306.00  0.593590E+05 0.247035E+06 0.167627E+08 0.125245E+08
     4316.00  0.591300E+05 0.237180E+06 0.165608E+08 0.128652E+08
     4326.00  0.588960E+05 0.227616E+06 0.163600E+08 0.132034E+08
     4336.00  0.586569E+05 0.218339E+06 0.161605E+08 0.135391E+08
     4346.00  0.584131E+05 0.209341E+06 0.159621E+08 0.138721E+08
     4356.00  0.581645E+05 0.200616E+06 0.157649E+08 0.142021E+08
     4366.00  0.579113E+05 0.192160E+06 0.155690E+08 0.145290E+08
     4376.00  0.576537E+05 0.183965E+06 0.153743E+08 0.148526E+08
     4386.00  0.573917E+05 0.176026E+06 0.151808E+08 0.151727E+08
     4396.00  0.571255E+05 0.168338E+06 0.149887E+08 0.154892E+08
     4406.00  0.568552E+05 0.160895E+06 0.147978E+08 0.158020E+08
     4416.00  0.565808E+05 0.153692E+06 0.146082E+08 0.161108E+08
     4426.00  0.563026E+05 0.146723E+06 0.144200E+08 0.164157E+08
     4436.00  0.560207E+05 0.139984E+06 0.142331E+08 0.167163E+08
     4446.00  0.557351E+05 0.133468E+06 0.140475E+08 0.170127E+08
     4456.00  0.554460E+05 0.127170E+06 0.138633E+08 0.173046E+08
     4466.00  0.551535E+05 0.121087E+06 0.136804E+08 0.175921E+08
     4476.00  0.548577E+05 0.115212E+06 0.134990E+08 0.178749E+08
     4486.00  0.545587E+05 0.109541E+06 0.133189E+08 0.181530E+08
     4511.00  0.537980E+05 0.962255E+05 0.128749E+08 0.188272E+08
     4536.00  0.530197E+05 0.840823E+05 0.124397E+08 0.194701E+08
     4561.00  0.522256E+05 0.730425E+05 0.120136E+08 0.200808E+08
     4586.00  0.514170E+05 0.630396E+05 0.115965E+08 0.206584E+08
     4611.00  0.505957E+05 0.540103E+05 0.111886E+08 0.212022E+08
     4636.00  0.497631E+05 0.458938E+05 0.107899E+08 0.217117E+08
     4661.00  0.489205E+05 0.386320E+05 0.104005E+08 0.221867E+08
     4686.00  0.480695E+05 0.321697E+05 0.100204E+08 0.226269E+08
     4711.00  0.472114E+05 0.264541E+05 0.964959E+07 0.230322E+08
     4736.00  0.463473E+05 0.214347E+05 0.928806E+07 0.234028E+08
     4761.00  0.454786E+05 0.170637E+05 0.893578E+07 0.237389E+08
     4786.00  0.446064E+05 0.132953E+05 0.859274E+07 0.240406E+08
     4811.00  0.437319E+05 0.100862E+05 0.825889E+07 0.243086E+08
     4836.00  0.428562E+05 0.739500E+04 0.793417E+07 0.245431E+08
     4861.00  0.419803E+05 0.518261E+04 0.761851E+07 0.247448E+08
     4886.00  0.411051E+05 0.341180E+04 0.731183E+07 0.249144E+08
     4911.00  0.402317E+05 0.204733E+04 0.701404E+07 0.250524E+08
     4936.00  0.393608E+05 0.105580E+04 0.672504E+07 0.251597E+08
     4961.00  0.384934E+05 0.405623E+03 0.644474E+07 0.252370E+08
     4986.00  0.376302E+05 0.669281E+02 0.617302E+07 0.252853E+08
     5011.00  0.367720E+05 0.115039E+02 0.590975E+07 0.253053E+08
     5036.00  0.359196E+05 0.212733E+03 0.565483E+07 0.252981E+08
     5061.00  0.350735E+05 0.645530E+03 0.540810E+07 0.252645E+08
     5086.00  0.342344E+05 0.128627E+04 0.516944E+07 0.252055E+08
     5111.00  0.334030E+05 0.211276E+04 0.493871E+07 0.251221E+08
     5136.00  0.325797E+05 0.310411E+04 0.471577E+07 0.250153E+08
     5161.00  0.317650E+05 0.424077E+04 0.450046E+07 0.248862E+08
     5186.00  0.309596E+05 0.550441E+04 0.429264E+07 0.247356E+08
     5211.00  0.301637E+05 0.687786E+04 0.409215E+07 0.245647E+08
     5236.00  0.293778E+05 0.834511E+04 0.389884E+07 0.243744E+08
     5261.00  0.286023E+05 0.989120E+04 0.371255E+07 0.241659E+08
     5286.00  0.278375E+05 0.115022E+05 0.353313E+07 0.239399E+08
     5311.00  0.270838E+05 0.131653E+05 0.336040E+07 0.236977E+08
     5336.00  0.263414E+05 0.148683E+05 0.319422E+07 0.234401E+08
     5361.00  0.256106E+05 0.166002E+05 0.303443E+07 0.231681E+08
     5386.00  0.248916E+05 0.183507E+05 0.288085E+07 0.228828E+08
     5411.00  0.241846E+05 0.201105E+05 0.273333E+07 0.225849E+08
     5436.00  0.234898E+05 0.218706E+05 0.259171E+07 0.222755E+08
     5461.00  0.228073E+05 0.236233E+05 0.245582E+07 0.219555E+08
     5511.00  0.214799E+05 0.270775E+05 0.220063E+07 0.212869E+08
     5561.00  0.202031E+05 0.304225E+05 0.196650E+07 0.205861E+08
     5611.00  0.189773E+05 0.336168E+05 0.175218E+07 0.198593E+08
     5661.00  0.178028E+05 0.366272E+05 0.155646E+07 0.191126E+08
     5711.00  0.166794E+05 0.394279E+05 0.137818E+07 0.183515E+08
     5761.00  0.156067E+05 0.419997E+05 0.121618E+07 0.175814E+08
     5811.00  0.145843E+05 0.443289E+05 0.106937E+07 0.168068E+08
     5861.00  0.136113E+05 0.464068E+05 0.936691E+06 0.160323E+08
     5911.00  0.126869E+05 0.482290E+05 0.817120E+06 0.152616E+08
     5961.00  0.118101E+05 0.497950E+05 0.709686E+06 0.144985E+08
     6011.00  0.109797E+05 0.511070E+05 0.613462E+06 0.137460E+08
     6061.00  0.101944E+05 0.521702E+05 0.527567E+06 0.130070E+08
     6111.00  0.945282E+04 0.529918E+05 0.451167E+06 0.122839E+08
     6161.00  0.875367E+04 0.535810E+05 0.383471E+06 0.115788E+08
     6211.00  0.809542E+04 0.539483E+05 0.323734E+06 0.108935E+08
     6261.00  0.747658E+04 0.541052E+05 0.271258E+06 0.102295E+08
     6311.00  0.689563E+04 0.540643E+05 0.225386E+06 0.958806E+07
     6361.00  0.635101E+04 0.538388E+05 0.185503E+06 0.897017E+07
     6411.00  0.584118E+04 0.534420E+05 0.151035E+06 0.837656E+07
     6461.00  0.536458E+04 0.528877E+05 0.121450E+06 0.780775E+07
     6511.00  0.491968E+04 0.521896E+05 0.962502E+05 0.726408E+07
     6561.00  0.450495E+04 0.513612E+05 0.749779E+05 0.674570E+07
     6611.00  0.411889E+04 0.504159E+05 0.572079E+05 0.625259E+07
     6661.00  0.376003E+04 0.493666E+05 0.425492E+05 0.578460E+07
     6711.00  0.342693E+04 0.482261E+05 0.306422E+05 0.534146E+07
     6761.00  0.311818E+04 0.470063E+05 0.211572E+05 0.492277E+07
     6811.00  0.283241E+04 0.457188E+05 0.137927E+05 0.452804E+07
     6861.00  0.256832E+04 0.443748E+05 0.827386E+04 0.415670E+07
     6911.00  0.232461E+04 0.429845E+05 0.435088E+04 0.380810E+07
     6961.00  0.210006E+04 0.415578E+05 0.179728E+04 0.348155E+07
     7011.00  0.189349E+04 0.401038E+05 0.408513E+03 0.317629E+07
     7061.00  0.170375E+04 0.386311E+05 0.403125E+00 0.289153E+07
     7111.00  0.152976E+04 0.371474E+05 0.407755E+03 0.262645E+07
     7161.00  0.137047E+04 0.356601E+05 0.148296E+04 0.238022E+07
     7211.00  0.122490E+04 0.341757E+05 0.309465E+04 0.215198E+07
     7261.00  0.109210E+04 0.327003E+05 0.512650E+04 0.194086E+07
     7311.00  0.971170E+03 0.312392E+05 0.747595E+04 0.174601E+07
     7361.00  0.861261E+03 0.297974E+05 0.100531E+05 0.156656E+07
     7411.00  0.761566E+03 0.283792E+05 0.127797E+05 0.140168E+07
     7511.00  0.589817E+03 0.256282E+05 0.184197E+05 0.111229E+07
     7611.00  0.450342E+03 0.230112E+05 0.239639E+05 0.871401E+06
     7711.00  0.338202E+03 0.205462E+05 0.291069E+05 0.672920E+06
     7811.00  0.249057E+03 0.182451E+05 0.336451E+05 0.511191E+06
     7911.00  0.179119E+03 0.161146E+05 0.374559E+05 0.381014E+06
     8011.00  0.125098E+03 0.141572E+05 0.404803E+05 0.277671E+06
     8111.00  0.841583E+02 0.123718E+05 0.427072E+05 0.196921E+06
     8211.00  0.538708E+02 0.107545E+05 0.441614E+05 0.134998E+06
     8311.00  0.321667E+02 0.929893E+04 0.448927E+05 0.885857E+05
     8411.00  0.172973E+02 0.799724E+04 0.449680E+05 0.547973E+05
     8511.00  0.779436E+01 0.684028E+04 0.444641E+05 0.311405E+05
     8611.00  0.243461E+01 0.581814E+04 0.434625E+05 0.154873E+05
     8711.00  0.207127E+00 0.492047E+04 0.420458E+05 0.603883E+04
     8811.00  0.283813E+00 0.413673E+04 0.402941E+05 0.129118E+04
     8911.00  0.199306E+01 0.345651E+04 0.382831E+05 0.143710E+01
     9011.00  0.479626E+01 0.286964E+04 0.360826E+05 0.115569E+04
     9111.00  0.826706E+01 0.236635E+04 0.337555E+05 0.393869E+04
     9211.00  0.120732E+02 0.193739E+04 0.313572E+05 0.770578E+04
     9311.00  0.159605E+02 0.157410E+04 0.289359E+05 0.119573E+05
     9411.00  0.197395E+02 0.126845E+04 0.265323E+05 0.163153E+05
     9511.00  0.232733E+02 0.101306E+04 0.241803E+05 0.205032E+05
     9611.00  0.264678E+02 0.801217E+03 0.219071E+05 0.243272E+05
     9711.00  0.292627E+02 0.626855E+03 0.197340E+05 0.276605E+05
     9811.00  0.316249E+02 0.484537E+03 0.176769E+05 0.304299E+05
     9911.00  0.335420E+02 0.369428E+03 0.157469E+05 0.326034E+05
    10011.00  0.350176E+02 0.277259E+03 0.139512E+05 0.341807E+05
    10111.00  0.360671E+02 0.204288E+03 0.122931E+05 0.351850E+05
    10211.00  0.367144E+02 0.147254E+03 0.107732E+05 0.356559E+05
    10311.00  0.369891E+02 0.103343E+03 0.938970E+04 0.356437E+05
    10411.00  0.369245E+02 0.701355E+02 0.813860E+04 0.352054E+05
    10511.00  0.365558E+02 0.455733E+02 0.701454E+04 0.344007E+05
    10611.00  0.359187E+02 0.279149E+02 0.601096E+04 0.332896E+05
    10711.00  0.350488E+02 0.156999E+02 0.512050E+04 0.319303E+05
    10811.00  0.339804E+02 0.771339E+01 0.433528E+04 0.303778E+05
    10911.00  0.327463E+02 0.295398E+01 0.364712E+04 0.286827E+05
    11011.00  0.313774E+02 0.604041E+00 0.304777E+04 0.268908E+05
    11111.00  0.299021E+02 0.316030E-02 0.252906E+04 0.250428E+05
    11211.00  0.283467E+02 0.624270E+00 0.208302E+04 0.231739E+05
    11311.00  0.267351E+02 0.205243E+01 0.170204E+04 0.213144E+05
    11411.00  0.250889E+02 0.396618E+01 0.137886E+04 0.194895E+05
    11511.00  0.234273E+02 0.612125E+01 0.110670E+04 0.177197E+05
    11611.00  0.217675E+02 0.833644E+01 0.879266E+03 0.160213E+05
    11711.00  0.201244E+02 0.104816E+02 0.690753E+03 0.144068E+05
    11811.00  0.185112E+02 0.124671E+02 0.535875E+03 0.128852E+05
    11911.00  0.169390E+02 0.142356E+02 0.409851E+03 0.114626E+05
    12011.00  0.154174E+02 0.157543E+02 0.308389E+03 0.101423E+05
    12111.00  0.139544E+02 0.170093E+02 0.227670E+03 0.892562E+04
    12211.00  0.125566E+02 0.180003E+02 0.164319E+03 0.781182E+04
    12311.00  0.112292E+02 0.187371E+02 0.115379E+03 0.679879E+04
    12411.00  0.997639E+01 0.192363E+02 0.782755E+02 0.588321E+04
    12511.00  0.880107E+01 0.195184E+02 0.507902E+02 0.506080E+04
    12611.00  0.770526E+01 0.196065E+02 0.310241E+02 0.432658E+04
    12711.00  0.669008E+01 0.195244E+02 0.173667E+02 0.367510E+04
    12811.00  0.575581E+01 0.192957E+02 0.846480E+01 0.310059E+04
    12911.00  0.490205E+01 0.189432E+02 0.319292E+01 0.259713E+04
    13011.00  0.412772E+01 0.184878E+02 0.624880E+00 0.215877E+04
    13111.00  0.343115E+01 0.179492E+02 0.785778E-02 0.177964E+04
    13211.00  0.281019E+01 0.173447E+02 0.738253E+00 0.145402E+04
    13311.00  0.226219E+01 0.166897E+02 0.233974E+01 0.117639E+04
    13411.00  0.178413E+01 0.159979E+02 0.444343E+01 0.941541E+03
    13511.00  0.137265E+01 0.152807E+02 0.677019E+01 0.744543E+03
    13611.00  0.102409E+01 0.145481E+02 0.911495E+01 0.580806E+03
    13711.00  0.734574E+00 0.138084E+02 0.113329E+02 0.446084E+03
    13811.00  0.500013E+00 0.130685E+02 0.133278E+02 0.336483E+03
    13911.00  0.316191E+00 0.123340E+02 0.150413E+02 0.248456E+03
    14011.00  0.178793E+00 0.116095E+02 0.164446E+02 0.178800E+03
    14111.00  0.834533E-01 0.108986E+02 0.175312E+02 0.124642E+03
    14211.00  0.257904E-01 0.102042E+02 0.183105E+02 0.834279E+02
    14311.00  0.145262E-02 0.952855E+01 0.188031E+02 0.529004E+02
    14411.00  0.615206E-02 0.887324E+01 0.190368E+02 0.310838E+02
    14511.00  0.356998E-01 0.823955E+01 0.190434E+02 0.162620E+02
    14611.00  0.860383E-01 0.762842E+01 0.188564E+02 0.695839E+01
    14711.00  0.153271E+00 0.704049E+01 0.185090E+02 0.191441E+01
    14811.00  0.233688E+00 0.647623E+01 0.180330E+02 0.688551E-01
    14911.00  0.323792E+00 0.593596E+01 0.174580E+02 0.537587E+00
    15011.00  0.420317E+00 0.541988E+01 0.168104E+02 0.259392E+01
    15111.00  0.520245E+00 0.492814E+01 0.161135E+02 0.565000E+01
    15211.00  0.620825E+00 0.446081E+01 0.153874E+02 0.923922E+01
    15311.00  0.719574E+00 0.401797E+01 0.146490E+02 0.129998E+02
    15411.00  0.814294E+00 0.359961E+01 0.139120E+02 0.166597E+02
    15511.00  0.903073E+00 0.320576E+01 0.131873E+02 0.200227E+02
    15611.00  0.984283E+00 0.283639E+01 0.124835E+02 0.229556E+02
    15711.00  0.105658E+01 0.249144E+01 0.118067E+02 0.253773E+02
    15811.00  0.111889E+01 0.217082E+01 0.111612E+02 0.272482E+02
    15911.00  0.117042E+01 0.187441E+01 0.105497E+02 0.285618E+02
    16011.00  0.121063E+01 0.160200E+01 0.997343E+01 0.293363E+02
    16111.00  0.123922E+01 0.135334E+01 0.943267E+01 0.296088E+02
    16211.00  0.125612E+01 0.112810E+01 0.892674E+01 0.294286E+02
    16311.00  0.126148E+01 0.925865E+00 0.845428E+01 0.288532E+02
    16411.00  0.125564E+01 0.746116E+00 0.801346E+01 0.279442E+02
    16511.00  0.123910E+01 0.588243E+00 0.760206E+01 0.267640E+02
    16611.00  0.121251E+01 0.451529E+00 0.721764E+01 0.253732E+02
    16711.00  0.117668E+01 0.335153E+00 0.685761E+01 0.238294E+02
    16811.00  0.113250E+01 0.238186E+00 0.651933E+01 0.221852E+02
    16911.00  0.108095E+01 0.159599E+00 0.620018E+01 0.204874E+02
    17011.00  0.102307E+01 0.982634E-01 0.589761E+01 0.187770E+02
    17111.00  0.959964E+00 0.529638E-01 0.560920E+01 0.170884E+02
    17211.00  0.892736E+00 0.224043E-01 0.533265E+01 0.154499E+02
    17311.00  0.822509E+00 0.522258E-02 0.506590E+01 0.138838E+02
    17411.00  0.750387E+00 0.374486E-05 0.480707E+01 0.124067E+02
    17511.00  0.677445E+00 0.529544E-02 0.455451E+01 0.110304E+02
    17611.00  0.604714E+00 0.196246E-01 0.430684E+01 0.976211E+01
    17711.00  0.533168E+00 0.415149E-01 0.406291E+01 0.860516E+01
    17811.00  0.463712E+00 0.695039E-01 0.382186E+01 0.755973E+01
    17911.00  0.397173E+00 0.102161E+00 0.358309E+01 0.662341E+01
    18011.00  0.334291E+00 0.138105E+00 0.334626E+01 0.579175E+01
    18111.00  0.275716E+00 0.176019E+00 0.311130E+01 0.505881E+01
    18211.00  0.221999E+00 0.214668E+00 0.287837E+01 0.441759E+01
    18311.00  0.173596E+00 0.252908E+00 0.264789E+01 0.386052E+01
    18411.00  0.130861E+00 0.289705E+00 0.242045E+01 0.337971E+01
    18511.00  0.940504E-01 0.324136E+00 0.219687E+01 0.296730E+01
    18611.00  0.633233E-01 0.355407E+00 0.197811E+01 0.261564E+01
    18711.00  0.387460E-01 0.382850E+00 0.176525E+01 0.231749E+01
    18811.00  0.202956E-01 0.405928E+00 0.155947E+01 0.206608E+01
    18911.00  0.786618E-02 0.424241E+00 0.136200E+01 0.185526E+01
    19011.00  0.127445E-02 0.437520E+00 0.117411E+01 0.167944E+01
    19111.00  0.267294E-03 0.445623E+00 0.997028E+00 0.153365E+01
    19311.00  0.136899E-01 0.446339E+00 0.679932E+00 0.131508E+01
    19511.00  0.450054E-01 0.427569E+00 0.418902E+00 0.117048E+01
    19711.00  0.904786E-01 0.392006E+00 0.219731E+00 0.107751E+01
    19911.00  0.146031E+00 0.343471E+00 0.850811E-01 0.101876E+01
    20111.00  0.207491E+00 0.286489E+00 0.140819E-01 0.980217E+00
    20311.00  0.270813E+00 0.225855E+00 0.226961E-02 0.950213E+00
    20511.00  0.332272E+00 0.166232E+00 0.418801E-01 0.918994E+00
    20711.00  0.388607E+00 0.111805E+00 0.122446E+00 0.878721E+00
    20911.00  0.437132E+00 0.660086E-01 0.231629E+00 0.823768E+00
    21111.00  0.475805E+00 0.313441E-01 0.356201E+00 0.751128E+00
    21311.00  0.503244E+00 0.928384E-02 0.483065E+00 0.660685E+00
    21511.00  0.518731E+00 0.268351E-03 0.600221E+00 0.555276E+00
    21711.00  0.522165E+00 0.377673E-02 0.697597E+00 0.440402E+00
    21911.00  0.514001E+00 0.184615E-01 0.767661E+00 0.323630E+00
    22111.00  0.495174E+00 0.423282E-01 0.805795E+00 0.213718E+00
    22311.00  0.467000E+00 0.729399E-01 0.810389E+00 0.119572E+00
    22511.00  0.431084E+00 0.107632E+00 0.782701E+00 0.491809E-01
    22711.00  0.389219E+00 0.143712E+00 0.726469E+00 0.864191E-02
    22911.00  0.343294E+00 0.178650E+00 0.647392E+00 0.141843E-02
    23111.00  0.295201E+00 0.210215E+00 0.552460E+00 0.279016E-01
    23311.00  0.246767E+00 0.236598E+00 0.449282E+00 0.853282E-01
    23511.00  0.199679E+00 0.256471E+00 0.345404E+00 0.168051E+00
    23711.00  0.155441E+00 0.269020E+00 0.247724E+00 0.268117E+00
    23911.00  0.115328E+00 0.273938E+00 0.162009E+00 0.376087E+00
    24111.00  0.803613E-01 0.271382E+00 0.925604E-01 0.481975E+00
    24311.00  0.512978E-01 0.261913E+00 0.420355E-01 0.576225E+00
    24511.00  0.286244E-01 0.246411E+00 0.114194E-01 0.650596E+00
    24711.00  0.125673E-01 0.225995E+00 0.134393E-03 0.698898E+00
    24911.00  0.310678E-02 0.201924E+00 0.625885E-02 0.717461E+00
    25111.00  0.309247E-06 0.175518E+00 0.268272E-01 0.705379E+00
    25311.00  0.281045E-02 0.148074E+00 0.581743E-01 0.664434E+00
    25511.00  0.109366E-01 0.120810E+00 0.962928E-01 0.598815E+00
    25711.00  0.236486E-01 0.948048E-01 0.137171E+00 0.514591E+00
    25911.00  0.401221E-01 0.709680E-01 0.177088E+00 0.419084E+00
    26111.00  0.594726E-01 0.500170E-01 0.212852E+00 0.320140E+00
    26311.00  0.807896E-01 0.324693E-01 0.241963E+00 0.225429E+00
    26511.00  0.103166E+00 0.186452E-01 0.262702E+00 0.141797E+00
    26711.00  0.125730E+00 0.868112E-02 0.274156E+00 0.747549E-01
    26911.00  0.147664E+00 0.254853E-02 0.276172E+00 0.281114E-01
         IE==>      8            9           10           11
        1.00  0.440983E-11 0.498850E-11 0.336691E-12 0.375872E-12
        2.00  0.539464E-08 0.606314E-08 0.380951E-09 0.654583E-09
        3.00  0.325737E-06 0.363734E-06 0.212145E-07 0.531051E-07
        4.00  0.576991E-05 0.640116E-05 0.345504E-06 0.121172E-05
        5.00  0.523701E-04 0.577219E-04 0.287369E-05 0.137200E-04
        6.00  0.312094E-03 0.341746E-03 0.156364E-04 0.994573E-04
        7.00  0.139339E-02 0.151581E-02 0.634895E-04 0.529255E-03
        8.00  0.504138E-02 0.544840E-02 0.208005E-03 0.224440E-02
        9.00  0.155472E-01 0.166922E-01 0.578095E-03 0.799940E-02
       10.00  0.422970E-01 0.451131E-01 0.140990E-02 0.248530E-01
       11.00  0.104024E+00 0.110218E+00 0.309030E-02 0.690884E-01
       12.00  0.235470E+00 0.247843E+00 0.619362E-02 0.175197E+00
       13.00  0.497309E+00 0.519971E+00 0.114967E-01 0.411275E+00
       14.00  0.990335E+00 0.102859E+01 0.199544E-01 0.904051E+00
       15.00  0.187508E+01 0.193454E+01 0.326164E-01 0.187782E+01
       16.00  0.339817E+01 0.348253E+01 0.504696E-01 0.371280E+01
       17.00  0.592688E+01 0.603336E+01 0.741969E-01 0.702974E+01
       18.00  0.999347E+01 0.101048E+02 0.103858E+00 0.128093E+02
       19.00  0.163512E+02 0.164221E+02 0.138514E+00 0.225566E+02
       20.00  0.260436E+02 0.259803E+02 0.175855E+00 0.385222E+02
       21.00  0.404898E+02 0.401183E+02 0.211909E+00 0.639951E+02
       22.00  0.615870E+02 0.606086E+02 0.240984E+00 0.103683E+03
       23.00  0.918337E+02 0.897609E+02 0.256018E+00 0.164198E+03
       24.00  0.134475E+03 0.130545E+03 0.249622E+00 0.254672E+03
       25.00  0.193675E+03 0.186731E+03 0.216137E+00 0.387520E+03
       26.00  0.274715E+03 0.263052E+03 0.155156E+00 0.579385E+03
       27.00  0.384223E+03 0.365386E+03 0.770537E-01 0.852289E+03
       28.00  0.530440E+03 0.500964E+03 0.111968E-01 0.123501E+04
       29.00  0.723521E+03 0.678602E+03 0.176262E-01 0.176477E+04
       30.00  0.975876E+03 0.908960E+03 0.203182E+00 0.248917E+04
       31.00  0.130256E+04 0.120483E+04 0.743182E+00 0.346852E+04
       32.00  0.172169E+04 0.158144E+04 0.190996E+01 0.477859E+04
       33.00  0.225494E+04 0.205681E+04 0.410977E+01 0.651367E+04
       34.00  0.292809E+04 0.265215E+04 0.792970E+01 0.879028E+04
       35.00  0.377158E+04 0.339220E+04 0.141966E+02 0.117513E+05
       36.00  0.482119E+04 0.430577E+04 0.240504E+02 0.155707E+05
       37.00  0.611878E+04 0.542613E+04 0.390333E+02 0.204591E+05
       38.00  0.771304E+04 0.679159E+04 0.611991E+02 0.266693E+05
       39.00  0.966037E+04 0.844601E+04 0.932446E+02 0.345042E+05
       40.00  0.120258E+05 0.104394E+05 0.138666E+03 0.443232E+05
       42.00  0.183209E+05 0.156780E+05 0.288771E+03 0.716911E+05
       44.00  0.273331E+05 0.230557E+05 0.563414E+03 0.113144E+06
       46.00  0.400109E+05 0.332644E+05 0.104305E+04 0.174624E+06
       48.00  0.575627E+05 0.471649E+05 0.184870E+04 0.264071E+06
       50.00  0.815103E+05 0.658157E+05 0.315771E+04 0.391943E+06
       52.00  0.113749E+06 0.905038E+05 0.522409E+04 0.571818E+06
       54.00  0.156616E+06 0.122778E+06 0.840433E+04 0.821104E+06
       56.00  0.212968E+06 0.164485E+06 0.131898E+05 0.116186E+07
       58.00  0.286268E+06 0.217808E+06 0.202468E+05 0.162173E+07
       60.00  0.380681E+06 0.285306E+06 0.304659E+05 0.223504E+07
       62.00  0.501184E+06 0.369961E+06 0.450213E+05 0.304401E+07
       64.00  0.653684E+06 0.475221E+06 0.654430E+05 0.410011E+07
       66.00  0.845148E+06 0.605046E+06 0.937021E+05 0.546562E+07
       68.00  0.108375E+07 0.763961E+06 0.132312E+06 0.721532E+07
       70.00  0.137902E+07 0.957098E+06 0.184446E+06 0.943834E+07
       72.00  0.174202E+07 0.119025E+07 0.254079E+06 0.122402E+08
       74.00  0.218552E+07 0.146994E+07 0.346143E+06 0.157452E+08
       76.00  0.272420E+07 0.180342E+07 0.466713E+06 0.200985E+08
       78.00  0.337488E+07 0.219878E+07 0.623222E+06 0.254691E+08
       80.00  0.415672E+07 0.266499E+07 0.824699E+06 0.320528E+08
       82.00  0.509152E+07 0.321194E+07 0.108205E+07 0.400747E+08
       84.00  0.620397E+07 0.385050E+07 0.140836E+07 0.497935E+08
       86.00  0.752193E+07 0.459258E+07 0.181926E+07 0.615040E+08
       88.00  0.907680E+07 0.545117E+07 0.233330E+07 0.755418E+08
       90.00  0.109038E+08 0.644042E+07 0.297243E+07 0.922869E+08
       92.00  0.130423E+08 0.757564E+07 0.376244E+07 0.112168E+09
       94.00  0.155362E+08 0.887338E+07 0.473354E+07 0.135666E+09
       96.00  0.184345E+08 0.103515E+08 0.592095E+07 0.163322E+09
       98.00  0.217915E+08 0.120290E+08 0.736557E+07 0.195736E+09
      100.00  0.256673E+08 0.139264E+08 0.911475E+07 0.233580E+09
      102.00  0.301284E+08 0.160657E+08 0.112230E+08 0.277597E+09
      104.00  0.352483E+08 0.184700E+08 0.137531E+08 0.328610E+09
      106.00  0.411076E+08 0.211641E+08 0.167768E+08 0.387529E+09
      108.00  0.477954E+08 0.241743E+08 0.203762E+08 0.455354E+09
      110.00  0.554090E+08 0.275284E+08 0.246445E+08 0.533185E+09
      112.00  0.640555E+08 0.312556E+08 0.296879E+08 0.622227E+09
      114.00  0.738516E+08 0.353867E+08 0.356265E+08 0.723798E+09
      116.00  0.849250E+08 0.399543E+08 0.425958E+08 0.839335E+09
      118.00  0.974149E+08 0.449920E+08 0.507487E+08 0.970404E+09
      122.00  0.127263E+09 0.566216E+08 0.713124E+08 0.128608E+10
      126.00  0.164771E+09 0.705767E+08 0.989537E+08 0.168619E+10
      130.00  0.211556E+09 0.871818E+08 0.135711E+09 0.218867E+10
      134.00  0.269512E+09 0.106784E+09 0.184107E+09 0.281432E+10
      138.00  0.340845E+09 0.129750E+09 0.247239E+09 0.358711E+10
      142.00  0.428119E+09 0.156468E+09 0.328885E+09 0.453452E+10
      146.00  0.534296E+09 0.187336E+09 0.433627E+09 0.568784E+10
      150.00  0.662785E+09 0.222766E+09 0.566980E+09 0.708249E+10
      154.00  0.817495E+09 0.263172E+09 0.735548E+09 0.875834E+10
      158.00  0.100289E+10 0.308967E+09 0.947196E+09 0.107601E+11
      162.00  0.122405E+10 0.360555E+09 0.121124E+10 0.131374E+11
      166.00  0.148673E+10 0.418323E+09 0.153865E+10 0.159455E+11
      170.00  0.179745E+10 0.482631E+09 0.194230E+10 0.192451E+11
      174.00  0.216351E+10 0.553793E+09 0.243719E+10 0.231027E+11
      178.00  0.259307E+10 0.632068E+09 0.304067E+10 0.275904E+11
      182.00  0.309520E+10 0.717638E+09 0.377275E+10 0.327857E+11
      186.00  0.367990E+10 0.810587E+09 0.465628E+10 0.387712E+11
      190.00  0.435810E+10 0.910883E+09 0.571723E+10 0.456342E+11
      194.00  0.514168E+10 0.101835E+10 0.698484E+10 0.534650E+11
      198.00  0.604342E+10 0.113264E+10 0.849180E+10 0.623565E+11
      202.00  0.707685E+10 0.125322E+10 0.102742E+11 0.724014E+11
      206.00  0.825611E+10 0.137930E+10 0.123716E+11 0.836899E+11
      210.00  0.959567E+10 0.150985E+10 0.148263E+11 0.963060E+11
      214.00  0.111099E+11 0.164355E+10 0.176834E+11 0.110324E+12
      218.00  0.128129E+11 0.177876E+10 0.209894E+11 0.125803E+12
      222.00  0.147173E+11 0.191351E+10 0.247917E+11 0.142782E+12
      226.00  0.168345E+11 0.204554E+10 0.291365E+11 0.161273E+12
      230.00  0.191728E+11 0.217225E+10 0.340674E+11 0.181256E+12
      234.00  0.217377E+11 0.229082E+10 0.396227E+11 0.202671E+12
      238.00  0.245297E+11 0.239818E+10 0.458334E+11 0.225412E+12
      242.00  0.275444E+11 0.249118E+10 0.527197E+11 0.249324E+12
      246.00  0.307711E+11 0.256665E+10 0.602888E+11 0.274196E+12
      250.00  0.341924E+11 0.262158E+10 0.685315E+11 0.299766E+12
      254.00  0.377840E+11 0.265327E+10 0.774212E+11 0.325720E+12
      258.00  0.415145E+11 0.265950E+10 0.869115E+11 0.351698E+12
      262.00  0.453464E+11 0.263871E+10 0.969367E+11 0.377312E+12
      266.00  0.492367E+11 0.259011E+10 0.107412E+12 0.402151E+12
      270.00  0.531387E+11 0.251382E+10 0.118238E+12 0.425806E+12
      274.00  0.570037E+11 0.241088E+10 0.129300E+12 0.447880E+12
      282.00  0.644298E+11 0.213385E+10 0.151640E+12 0.485894E+12
      290.00  0.711623E+11 0.178443E+10 0.173448E+12 0.513973E+12
      298.00  0.769369E+11 0.139695E+10 0.193845E+12 0.531006E+12
      306.00  0.816080E+11 0.100856E+10 0.212181E+12 0.537038E+12
      314.00  0.851463E+11 0.653584E+09 0.228083E+12 0.533048E+12
      322.00  0.876148E+11 0.359703E+09 0.241431E+12 0.520610E+12
      330.00  0.891357E+11 0.146563E+09 0.252304E+12 0.501540E+12
      338.00  0.898591E+11 0.260774E+08 0.260914E+12 0.477632E+12
      346.00  0.899389E+11 0.376797E+07 0.267532E+12 0.450487E+12
      354.00  0.895169E+11 0.804480E+08 0.272450E+12 0.421436E+12
      362.00  0.887152E+11 0.253785E+09 0.275943E+12 0.391525E+12
      370.00  0.876343E+11 0.519552E+09 0.278254E+12 0.361546E+12
      378.00  0.863545E+11 0.872542E+09 0.279595E+12 0.332073E+12
      386.00  0.849386E+11 0.130717E+10 0.280140E+12 0.303512E+12
      394.00  0.834343E+11 0.181787E+10 0.280033E+12 0.276136E+12
      402.00  0.818772E+11 0.239927E+10 0.279388E+12 0.250116E+12
      410.00  0.802931E+11 0.304631E+10 0.278295E+12 0.225553E+12
      418.00  0.787009E+11 0.375430E+10 0.276824E+12 0.202494E+12
      426.00  0.771138E+11 0.451888E+10 0.275032E+12 0.180950E+12
      434.00  0.755414E+11 0.533601E+10 0.272964E+12 0.160909E+12
      442.00  0.739900E+11 0.620197E+10 0.270656E+12 0.142341E+12
      450.00  0.724634E+11 0.711325E+10 0.268136E+12 0.125201E+12
      458.00  0.709640E+11 0.806657E+10 0.265424E+12 0.109441E+12
      466.00  0.694927E+11 0.905881E+10 0.262539E+12 0.950074E+11
      474.00  0.680499E+11 0.100870E+11 0.259495E+12 0.818432E+11
      482.00  0.666356E+11 0.111484E+11 0.256305E+12 0.698919E+11
      490.00  0.652494E+11 0.122402E+11 0.252981E+12 0.590968E+11
      498.00  0.638905E+11 0.133600E+11 0.249532E+12 0.494014E+11
      506.00  0.625580E+11 0.145052E+11 0.245966E+12 0.407502E+11
      514.00  0.612508E+11 0.156734E+11 0.242292E+12 0.330890E+11
      522.00  0.599681E+11 0.168622E+11 0.238515E+12 0.263650E+11
      530.00  0.587089E+11 0.180694E+11 0.234645E+12 0.205267E+11
      538.00  0.574724E+11 0.192929E+11 0.230688E+12 0.155244E+11
      546.00  0.562578E+11 0.205305E+11 0.226651E+12 0.113095E+11
      554.00  0.550644E+11 0.217803E+11 0.222541E+12 0.783507E+10
      562.00  0.538914E+11 0.230402E+11 0.218364E+12 0.505571E+10
      570.00  0.527381E+11 0.243084E+11 0.214126E+12 0.292740E+10
      578.00  0.516037E+11 0.255829E+11 0.209834E+12 0.140764E+10
      586.00  0.504879E+11 0.268620E+11 0.205494E+12 0.455375E+09
      596.00  0.491182E+11 0.284646E+11 0.200010E+12 0.283666E+07
      606.00  0.477758E+11 0.300685E+11 0.194472E+12 0.300870E+09
      616.00  0.464597E+11 0.316704E+11 0.188891E+12 0.127855E+10
      626.00  0.451689E+11 0.332673E+11 0.183278E+12 0.286829E+10
      636.00  0.439029E+11 0.348561E+11 0.177644E+12 0.500573E+10
      646.00  0.426609E+11 0.364342E+11 0.171998E+12 0.762972E+10
      656.00  0.414425E+11 0.379988E+11 0.166350E+12 0.106822E+11
      666.00  0.402471E+11 0.395474E+11 0.160712E+12 0.141083E+11
      676.00  0.390744E+11 0.410776E+11 0.155092E+12 0.178561E+11
      686.00  0.379239E+11 0.425871E+11 0.149499E+12 0.218765E+11
      696.00  0.367952E+11 0.440736E+11 0.143942E+12 0.261233E+11
      706.00  0.356882E+11 0.455351E+11 0.138430E+12 0.305532E+11
      716.00  0.346024E+11 0.469696E+11 0.132970E+12 0.351257E+11
      726.00  0.335379E+11 0.483754E+11 0.127570E+12 0.398029E+11
      736.00  0.324944E+11 0.497510E+11 0.122239E+12 0.445496E+11
      746.00  0.314716E+11 0.510948E+11 0.116982E+12 0.493329E+11
      756.00  0.304695E+11 0.524054E+11 0.111806E+12 0.541227E+11
      766.00  0.294879E+11 0.536813E+11 0.106718E+12 0.588909E+11
      776.00  0.285266E+11 0.549216E+11 0.101723E+12 0.636119E+11
      786.00  0.275855E+11 0.561250E+11 0.968264E+11 0.682623E+11
      796.00  0.266644E+11 0.572907E+11 0.920329E+11 0.728210E+11
      806.00  0.257633E+11 0.584178E+11 0.873471E+11 0.772686E+11
      816.00  0.248820E+11 0.595056E+11 0.827729E+11 0.815877E+11
      826.00  0.240202E+11 0.605533E+11 0.783139E+11 0.857628E+11
      836.00  0.231779E+11 0.615602E+11 0.739733E+11 0.897801E+11
      846.00  0.223548E+11 0.625258E+11 0.697538E+11 0.936273E+11
      856.00  0.215508E+11 0.634496E+11 0.656580E+11 0.972940E+11
      866.00  0.207658E+11 0.643313E+11 0.616881E+11 0.100771E+12
      876.00  0.199995E+11 0.651706E+11 0.578458E+11 0.104051E+12
      886.00  0.192518E+11 0.659673E+11 0.541327E+11 0.107127E+12
      896.00  0.185224E+11 0.667212E+11 0.505498E+11 0.109995E+12
      906.00  0.178113E+11 0.674320E+11 0.470981E+11 0.112650E+12
      916.00  0.171182E+11 0.680997E+11 0.437780E+11 0.115090E+12
      926.00  0.164428E+11 0.687245E+11 0.405900E+11 0.117313E+12
      936.00  0.157851E+11 0.693064E+11 0.375342E+11 0.119317E+12
      946.00  0.151449E+11 0.698456E+11 0.346103E+11 0.121104E+12
      956.00  0.145219E+11 0.703424E+11 0.318180E+11 0.122675E+12
      966.00  0.139159E+11 0.707970E+11 0.291566E+11 0.124030E+12
      976.00  0.133268E+11 0.712097E+11 0.266253E+11 0.125173E+12
      986.00  0.127543E+11 0.715808E+11 0.242229E+11 0.126106E+12
      996.00  0.121982E+11 0.719107E+11 0.219483E+11 0.126833E+12
     1006.00  0.116583E+11 0.722001E+11 0.198000E+11 0.127358E+12
     1016.00  0.111344E+11 0.724493E+11 0.177765E+11 0.127686E+12
     1026.00  0.106262E+11 0.726589E+11 0.158759E+11 0.127823E+12
     1036.00  0.101336E+11 0.728296E+11 0.140965E+11 0.127773E+12
     1046.00  0.965626E+10 0.729618E+11 0.124361E+11 0.127542E+12
     1056.00  0.919399E+10 0.730562E+11 0.108926E+11 0.127137E+12
     1066.00  0.874653E+10 0.731134E+11 0.946375E+10 0.126564E+12
     1076.00  0.831366E+10 0.731341E+11 0.814713E+10 0.125829E+12
     1086.00  0.789514E+10 0.731189E+11 0.694029E+10 0.124939E+12
     1096.00  0.749072E+10 0.730687E+11 0.584068E+10 0.123901E+12
     1106.00  0.710016E+10 0.729841E+11 0.484567E+10 0.122723E+12
     1116.00  0.672323E+10 0.728658E+11 0.395258E+10 0.121410E+12
     1126.00  0.635967E+10 0.727148E+11 0.315863E+10 0.119971E+12
     1136.00  0.600924E+10 0.725316E+11 0.246102E+10 0.118411E+12
     1146.00  0.567168E+10 0.723171E+11 0.185690E+10 0.116740E+12
     1156.00  0.534676E+10 0.720720E+11 0.134338E+10 0.114963E+12
     1166.00  0.503423E+10 0.717972E+11 0.917545E+09 0.113088E+12
     1176.00  0.473384E+10 0.714936E+11 0.576446E+09 0.111121E+12
     1186.00  0.444535E+10 0.711619E+11 0.317127E+09 0.109071E+12
     1196.00  0.416851E+10 0.708030E+11 0.136613E+09 0.106943E+12
     1206.00  0.390309E+10 0.704178E+11 0.319282E+08 0.104745E+12
     1216.00  0.364883E+10 0.700072E+11 0.925246E+05 0.102484E+12
     1226.00  0.340549E+10 0.695718E+11 0.381327E+08 0.100165E+12
     1236.00  0.317283E+10 0.691127E+11 0.143085E+09 0.977959E+11
     1246.00  0.295060E+10 0.686307E+11 0.311999E+09 0.953821E+11
     1256.00  0.273857E+10 0.681265E+11 0.541944E+09 0.929302E+11
     1266.00  0.253650E+10 0.676012E+11 0.830013E+09 0.904459E+11
     1276.00  0.234416E+10 0.670555E+11 0.117332E+10 0.879352E+11
     1286.00  0.216129E+10 0.664904E+11 0.156903E+10 0.854036E+11
     1296.00  0.198768E+10 0.659066E+11 0.201431E+10 0.828565E+11
     1306.00  0.182309E+10 0.653049E+11 0.250639E+10 0.802990E+11
     1316.00  0.166728E+10 0.646863E+11 0.304253E+10 0.777363E+11
     1326.00  0.152002E+10 0.640514E+11 0.362003E+10 0.751731E+11
     1336.00  0.138110E+10 0.634011E+11 0.423624E+10 0.726140E+11
     1346.00  0.125028E+10 0.627362E+11 0.488856E+10 0.700635E+11
     1356.00  0.112734E+10 0.620574E+11 0.557442E+10 0.675258E+11
     1366.00  0.101207E+10 0.613657E+11 0.629133E+10 0.650049E+11
     1376.00  0.904236E+09 0.606617E+11 0.703684E+10 0.625046E+11
     1386.00  0.803636E+09 0.599461E+11 0.780854E+10 0.600286E+11
     1396.00  0.710053E+09 0.592198E+11 0.860410E+10 0.575803E+11
     1406.00  0.623278E+09 0.584834E+11 0.942122E+10 0.551629E+11
     1416.00  0.543103E+09 0.577376E+11 0.102577E+11 0.527794E+11
     1426.00  0.469324E+09 0.569832E+11 0.111113E+11 0.504327E+11
     1436.00  0.401740E+09 0.562208E+11 0.119800E+11 0.481255E+11
     1446.00  0.340153E+09 0.554512E+11 0.128617E+11 0.458602E+11
     1456.00  0.284367E+09 0.546749E+11 0.137544E+11 0.436393E+11
     1466.00  0.234189E+09 0.538928E+11 0.146562E+11 0.414647E+11
     1476.00  0.189430E+09 0.531053E+11 0.155653E+11 0.393385E+11
     1486.00  0.149903E+09 0.523132E+11 0.164797E+11 0.372624E+11
     1496.00  0.115424E+09 0.515171E+11 0.173979E+11 0.352381E+11
     1506.00  0.858122E+08 0.507175E+11 0.183180E+11 0.332670E+11
     1516.00  0.608907E+08 0.499150E+11 0.192386E+11 0.313505E+11
     1526.00  0.404847E+08 0.491102E+11 0.201579E+11 0.294897E+11
     1536.00  0.244229E+08 0.483038E+11 0.210746E+11 0.276855E+11
     1546.00  0.125369E+08 0.474961E+11 0.219871E+11 0.259390E+11
     1556.00  0.466163E+07 0.466879E+11 0.228942E+11 0.242508E+11
     1566.00  0.634987E+06 0.458795E+11 0.237945E+11 0.226215E+11
     1576.00  0.298104E+06 0.450716E+11 0.246867E+11 0.210516E+11
     1586.00  0.349523E+07 0.442645E+11 0.255697E+11 0.195415E+11
     1596.00  0.100738E+08 0.434588E+11 0.264422E+11 0.180913E+11
     1606.00  0.198843E+08 0.426549E+11 0.273033E+11 0.167012E+11
     1616.00  0.327804E+08 0.418532E+11 0.281519E+11 0.153711E+11
     1626.00  0.486189E+08 0.410542E+11 0.289870E+11 0.141011E+11
     1636.00  0.672598E+08 0.402582E+11 0.298077E+11 0.128909E+11
     1646.00  0.885660E+08 0.394658E+11 0.306131E+11 0.117402E+11
     1656.00  0.112404E+09 0.386772E+11 0.314025E+11 0.106486E+11
     1666.00  0.138642E+09 0.378929E+11 0.321750E+11 0.961574E+10
     1676.00  0.167154E+09 0.371132E+11 0.329299E+11 0.864102E+10
     1686.00  0.197814E+09 0.363384E+11 0.336666E+11 0.772383E+10
     1696.00  0.230500E+09 0.355689E+11 0.343845E+11 0.686349E+10
     1706.00  0.265094E+09 0.348050E+11 0.350829E+11 0.605924E+10
     1716.00  0.301481E+09 0.340469E+11 0.357614E+11 0.531028E+10
     1726.00  0.339546E+09 0.332950E+11 0.364194E+11 0.461573E+10
     1736.00  0.379181E+09 0.325495E+11 0.370566E+11 0.397466E+10
     1746.00  0.420279E+09 0.318108E+11 0.376726E+11 0.338611E+10
     1756.00  0.462735E+09 0.310790E+11 0.382669E+11 0.284904E+10
     1766.00  0.506448E+09 0.303544E+11 0.388392E+11 0.236241E+10
     1776.00  0.551320E+09 0.296372E+11 0.393894E+11 0.192509E+10
     1786.00  0.597255E+09 0.289277E+11 0.399172E+11 0.153596E+10
     1796.00  0.644160E+09 0.282260E+11 0.404223E+11 0.119385E+10
     1806.00  0.691945E+09 0.275324E+11 0.409046E+11 0.897539E+09
     1816.00  0.740522E+09 0.268469E+11 0.413640E+11 0.645818E+09
     1826.00  0.789807E+09 0.261699E+11 0.418003E+11 0.437435E+09
     1836.00  0.839716E+09 0.255013E+11 0.422135E+11 0.271122E+09
     1846.00  0.890171E+09 0.248415E+11 0.426036E+11 0.145595E+09
     1856.00  0.941095E+09 0.241905E+11 0.429706E+11 0.595538E+08
     1866.00  0.992412E+09 0.235485E+11 0.433144E+11 0.116899E+08
     1876.00  0.104405E+10 0.229155E+11 0.436352E+11 0.684370E+06
     1886.00  0.109594E+10 0.222917E+11 0.439330E+11 0.252125E+08
     1896.00  0.114802E+10 0.216772E+11 0.442079E+11 0.839457E+08
     1906.00  0.120022E+10 0.210721E+11 0.444601E+11 0.175554E+09
     1916.00  0.125247E+10 0.204764E+11 0.446897E+11 0.298707E+09
     1926.00  0.130472E+10 0.198902E+11 0.448968E+11 0.452077E+09
     1936.00  0.135691E+10 0.193136E+11 0.450816E+11 0.634343E+09
     1946.00  0.140898E+10 0.187466E+11 0.452445E+11 0.844186E+09
     1956.00  0.146088E+10 0.181893E+11 0.453855E+11 0.108030E+10
     1966.00  0.151255E+10 0.176417E+11 0.455049E+11 0.134138E+10
     1976.00  0.156396E+10 0.171039E+11 0.456030E+11 0.162615E+10
     1986.00  0.161504E+10 0.165758E+11 0.456802E+11 0.193333E+10
     1996.00  0.166576E+10 0.160575E+11 0.457366E+11 0.226166E+10
     2006.00  0.171607E+10 0.155489E+11 0.457726E+11 0.260988E+10
     2016.00  0.176593E+10 0.150502E+11 0.457884E+11 0.297679E+10
     2026.00  0.181529E+10 0.145612E+11 0.457845E+11 0.336115E+10
     2036.00  0.186413E+10 0.140819E+11 0.457612E+11 0.376178E+10
     2046.00  0.191240E+10 0.136124E+11 0.457188E+11 0.417751E+10
     2056.00  0.196007E+10 0.131527E+11 0.456576E+11 0.460719E+10
     2066.00  0.200711E+10 0.127026E+11 0.455782E+11 0.504967E+10
     2076.00  0.205349E+10 0.122621E+11 0.454808E+11 0.550387E+10
     2086.00  0.209917E+10 0.118313E+11 0.453658E+11 0.596868E+10
     2096.00  0.214413E+10 0.114100E+11 0.452337E+11 0.644306E+10
     2106.00  0.218834E+10 0.109983E+11 0.450848E+11 0.692595E+10
     2116.00  0.223178E+10 0.105960E+11 0.449195E+11 0.741635E+10
     2126.00  0.227443E+10 0.102031E+11 0.447384E+11 0.791328E+10
     2136.00  0.231626E+10 0.981950E+10 0.445417E+11 0.841576E+10
     2146.00  0.235725E+10 0.944519E+10 0.443299E+11 0.892286E+10
     2156.00  0.239739E+10 0.908007E+10 0.441035E+11 0.943367E+10
     2166.00  0.243665E+10 0.872407E+10 0.438628E+11 0.994730E+10
     2176.00  0.247502E+10 0.837710E+10 0.436083E+11 0.104629E+11
     2186.00  0.251249E+10 0.803908E+10 0.433404E+11 0.109796E+11
     2196.00  0.254904E+10 0.770992E+10 0.430596E+11 0.114967E+11
     2206.00  0.258466E+10 0.738955E+10 0.427663E+11 0.120134E+11
     2216.00  0.261933E+10 0.707786E+10 0.424610E+11 0.125288E+11
     2226.00  0.265306E+10 0.677475E+10 0.421440E+11 0.130424E+11
     2236.00  0.268582E+10 0.648014E+10 0.418158E+11 0.135533E+11
     2246.00  0.271761E+10 0.619391E+10 0.414769E+11 0.140609E+11
     2256.00  0.274843E+10 0.591598E+10 0.411276E+11 0.145646E+11
     2266.00  0.277827E+10 0.564622E+10 0.407683E+11 0.150638E+11
     2276.00  0.280711E+10 0.538453E+10 0.403996E+11 0.155579E+11
     2286.00  0.283497E+10 0.513081E+10 0.400218E+11 0.160462E+11
     2296.00  0.286183E+10 0.488494E+10 0.396354E+11 0.165284E+11
     2306.00  0.288770E+10 0.464682E+10 0.392407E+11 0.170037E+11
     2316.00  0.291257E+10 0.441632E+10 0.388382E+11 0.174719E+11
     2326.00  0.293644E+10 0.419334E+10 0.384282E+11 0.179323E+11
     2336.00  0.295931E+10 0.397776E+10 0.380113E+11 0.183846E+11
     2346.00  0.298118E+10 0.376946E+10 0.375877E+11 0.188284E+11
     2356.00  0.300206E+10 0.356831E+10 0.371579E+11 0.192632E+11
     2366.00  0.302195E+10 0.337422E+10 0.367222E+11 0.196887E+11
     2376.00  0.304084E+10 0.318704E+10 0.362811E+11 0.201045E+11
     2386.00  0.305875E+10 0.300666E+10 0.358349E+11 0.205103E+11
     2396.00  0.307568E+10 0.283297E+10 0.353839E+11 0.209059E+11
     2406.00  0.309163E+10 0.266583E+10 0.349286E+11 0.212909E+11
     2416.00  0.310661E+10 0.250514E+10 0.344693E+11 0.216651E+11
     2426.00  0.312062E+10 0.235076E+10 0.340063E+11 0.220282E+11
     2436.00  0.313368E+10 0.220257E+10 0.335401E+11 0.223801E+11
     2446.00  0.314578E+10 0.206046E+10 0.330709E+11 0.227205E+11
     2456.00  0.315694E+10 0.192430E+10 0.325990E+11 0.230492E+11
     2466.00  0.316717E+10 0.179396E+10 0.321249E+11 0.233661E+11
     2476.00  0.317647E+10 0.166933E+10 0.316487E+11 0.236711E+11
     2486.00  0.318485E+10 0.155029E+10 0.311709E+11 0.239641E+11
     2496.00  0.319232E+10 0.143671E+10 0.306918E+11 0.242448E+11
     2506.00  0.319890E+10 0.132848E+10 0.302115E+11 0.245133E+11
     2516.00  0.320458E+10 0.122546E+10 0.297305E+11 0.247695E+11
     2526.00  0.320939E+10 0.112755E+10 0.292490E+11 0.250133E+11
     2536.00  0.321334E+10 0.103463E+10 0.287673E+11 0.252446E+11
     2546.00  0.321642E+10 0.946572E+09 0.282857E+11 0.254636E+11
     2556.00  0.321867E+10 0.863262E+09 0.278044E+11 0.256700E+11
     2566.00  0.322008E+10 0.784585E+09 0.273237E+11 0.258640E+11
     2576.00  0.322067E+10 0.710423E+09 0.268438E+11 0.260456E+11
     2586.00  0.322046E+10 0.640662E+09 0.263650E+11 0.262148E+11
     2596.00  0.321945E+10 0.575188E+09 0.258876E+11 0.263716E+11
     2606.00  0.321766E+10 0.513888E+09 0.254116E+11 0.265161E+11
     2616.00  0.321511E+10 0.456649E+09 0.249375E+11 0.266483E+11
     2626.00  0.321179E+10 0.403360E+09 0.244653E+11 0.267684E+11
     2636.00  0.320773E+10 0.353912E+09 0.239953E+11 0.268765E+11
     2646.00  0.320295E+10 0.308195E+09 0.235277E+11 0.269725E+11
     2656.00  0.319744E+10 0.266102E+09 0.230627E+11 0.270567E+11
     2666.00  0.319124E+10 0.227527E+09 0.226004E+11 0.271291E+11
     2676.00  0.318434E+10 0.192365E+09 0.221411E+11 0.271899E+11
     2686.00  0.317678E+10 0.160511E+09 0.216849E+11 0.272392E+11
     2696.00  0.316855E+10 0.131864E+09 0.212320E+11 0.272772E+11
     2706.00  0.315967E+10 0.106321E+09 0.207826E+11 0.273039E+11
     2716.00  0.315016E+10 0.837843E+08 0.203367E+11 0.273196E+11
     2726.00  0.314003E+10 0.641539E+08 0.198946E+11 0.273245E+11
     2736.00  0.312930E+10 0.473331E+08 0.194564E+11 0.273186E+11
     2746.00  0.311798E+10 0.332264E+08 0.190222E+11 0.273022E+11
     2756.00  0.310608E+10 0.217394E+08 0.185922E+11 0.272754E+11
     2766.00  0.309362E+10 0.127794E+08 0.181664E+11 0.272384E+11
     2776.00  0.308060E+10 0.625522E+07 0.177450E+11 0.271915E+11
     2786.00  0.306706E+10 0.207688E+07 0.173281E+11 0.271348E+11
     2796.00  0.305299E+10 0.156091E+06 0.169158E+11 0.270685E+11
     2806.00  0.303842E+10 0.405983E+06 0.165082E+11 0.269928E+11
     2816.00  0.302335E+10 0.274120E+07 0.161054E+11 0.269079E+11
     2826.00  0.300780E+10 0.707789E+07 0.157074E+11 0.268140E+11
     2836.00  0.299179E+10 0.133337E+08 0.153144E+11 0.267114E+11
     2846.00  0.297533E+10 0.214278E+08 0.149265E+11 0.266003E+11
     2856.00  0.295844E+10 0.312810E+08 0.145436E+11 0.264808E+11
     2866.00  0.294112E+10 0.428154E+08 0.141660E+11 0.263533E+11
     2876.00  0.292338E+10 0.559547E+08 0.137935E+11 0.262178E+11
     2886.00  0.290526E+10 0.706242E+08 0.134263E+11 0.260747E+11
     2896.00  0.288675E+10 0.867508E+08 0.130645E+11 0.259242E+11
     2906.00  0.286787E+10 0.104263E+09 0.127081E+11 0.257664E+11
     2916.00  0.284863E+10 0.123090E+09 0.123570E+11 0.256016E+11
     2926.00  0.282905E+10 0.143163E+09 0.120115E+11 0.254301E+11
     2936.00  0.280914E+10 0.164415E+09 0.116714E+11 0.252520E+11
     2946.00  0.278891E+10 0.186782E+09 0.113368E+11 0.250676E+11
     2956.00  0.276837E+10 0.210197E+09 0.110078E+11 0.248771E+11
     2966.00  0.274755E+10 0.234599E+09 0.106844E+11 0.246808E+11
     2976.00  0.272644E+10 0.259927E+09 0.103665E+11 0.244788E+11
     2986.00  0.270507E+10 0.286121E+09 0.100542E+11 0.242714E+11
     2996.00  0.268344E+10 0.313122E+09 0.974752E+10 0.240588E+11
     3006.00  0.266157E+10 0.340873E+09 0.944645E+10 0.238412E+11
     3016.00  0.263946E+10 0.369320E+09 0.915098E+10 0.236188E+11
     3026.00  0.261714E+10 0.398408E+09 0.886111E+10 0.233919E+11
     3036.00  0.259461E+10 0.428085E+09 0.857684E+10 0.231607E+11
     3046.00  0.257188E+10 0.458299E+09 0.829816E+10 0.229253E+11
     3056.00  0.254896E+10 0.489001E+09 0.802505E+10 0.226860E+11
     3066.00  0.252587E+10 0.520142E+09 0.775749E+10 0.224431E+11
     3076.00  0.250262E+10 0.551675E+09 0.749548E+10 0.221966E+11
     3086.00  0.247922E+10 0.583555E+09 0.723899E+10 0.219469E+11
     3096.00  0.245567E+10 0.615737E+09 0.698800E+10 0.216941E+11
     3106.00  0.243199E+10 0.648178E+09 0.674248E+10 0.214384E+11
     3116.00  0.240819E+10 0.680837E+09 0.650239E+10 0.211800E+11
     3126.00  0.238427E+10 0.713672E+09 0.626772E+10 0.209191E+11
     3136.00  0.236026E+10 0.746645E+09 0.603842E+10 0.206559E+11
     3146.00  0.233615E+10 0.779717E+09 0.581446E+10 0.203906E+11
     3156.00  0.231196E+10 0.812853E+09 0.559580E+10 0.201234E+11
     3166.00  0.228770E+10 0.846015E+09 0.538240E+10 0.198544E+11
     3176.00  0.226337E+10 0.879171E+09 0.517422E+10 0.195838E+11
     3186.00  0.223898E+10 0.912286E+09 0.497121E+10 0.193118E+11
     3196.00  0.221455E+10 0.945329E+09 0.477333E+10 0.190386E+11
     3206.00  0.219009E+10 0.978268E+09 0.458053E+10 0.187644E+11
     3216.00  0.216559E+10 0.101108E+10 0.439276E+10 0.184892E+11
     3226.00  0.214107E+10 0.104372E+10 0.420997E+10 0.182134E+11
     3236.00  0.211654E+10 0.107618E+10 0.403210E+10 0.179369E+11
     3246.00  0.209201E+10 0.110842E+10 0.385911E+10 0.176601E+11
     3256.00  0.206747E+10 0.114042E+10 0.369094E+10 0.173830E+11
     3266.00  0.204295E+10 0.117215E+10 0.352753E+10 0.171057E+11
     3276.00  0.201845E+10 0.120360E+10 0.336883E+10 0.168285E+11
     3286.00  0.199397E+10 0.123473E+10 0.321477E+10 0.165515E+11
     3296.00  0.196953E+10 0.126554E+10 0.306529E+10 0.162748E+11
     3306.00  0.194512E+10 0.129599E+10 0.292034E+10 0.159985E+11
     3316.00  0.192076E+10 0.132606E+10 0.277986E+10 0.157228E+11
     3326.00  0.189645E+10 0.135575E+10 0.264378E+10 0.154477E+11
     3336.00  0.187220E+10 0.138503E+10 0.251203E+10 0.151735E+11
     3346.00  0.184802E+10 0.141388E+10 0.238456E+10 0.149003E+11
     3356.00  0.182391E+10 0.144229E+10 0.226130E+10 0.146281E+11
     3366.00  0.179987E+10 0.147025E+10 0.214219E+10 0.143570E+11
     3376.00  0.177592E+10 0.149773E+10 0.202716E+10 0.140873E+11
     3386.00  0.175206E+10 0.152474E+10 0.191614E+10 0.138189E+11
     3396.00  0.172829E+10 0.155124E+10 0.180907E+10 0.135520E+11
     3406.00  0.170463E+10 0.157724E+10 0.170588E+10 0.132867E+11
     3416.00  0.168106E+10 0.160271E+10 0.160650E+10 0.130231E+11
     3426.00  0.165761E+10 0.162766E+10 0.151087E+10 0.127612E+11
     3436.00  0.163427E+10 0.165207E+10 0.141892E+10 0.125012E+11
     3446.00  0.161105E+10 0.167593E+10 0.133059E+10 0.122432E+11
     3456.00  0.158795E+10 0.169923E+10 0.124579E+10 0.119871E+11
     3466.00  0.156498E+10 0.172197E+10 0.116448E+10 0.117332E+11
     3476.00  0.154215E+10 0.174414E+10 0.108657E+10 0.114815E+11
     3486.00  0.151945E+10 0.176573E+10 0.101200E+10 0.112320E+11
     3496.00  0.149689E+10 0.178674E+10 0.940705E+09 0.109848E+11
     3506.00  0.147447E+10 0.180715E+10 0.872617E+09 0.107400E+11
     3516.00  0.145220E+10 0.182698E+10 0.807668E+09 0.104976E+11
     3526.00  0.143008E+10 0.184621E+10 0.745790E+09 0.102578E+11
     3536.00  0.140812E+10 0.186484E+10 0.686917E+09 0.100205E+11
     3546.00  0.138631E+10 0.188287E+10 0.630983E+09 0.978579E+10
     3556.00  0.136467E+10 0.190029E+10 0.577920E+09 0.955377E+10
     3566.00  0.134319E+10 0.191711E+10 0.527662E+09 0.932446E+10
     3576.00  0.132187E+10 0.193332E+10 0.480146E+09 0.909791E+10
     3586.00  0.130072E+10 0.194891E+10 0.435304E+09 0.887415E+10
     3596.00  0.127975E+10 0.196390E+10 0.393072E+09 0.865323E+10
     3606.00  0.125895E+10 0.197828E+10 0.353386E+09 0.843518E+10
     3616.00  0.123832E+10 0.199205E+10 0.316182E+09 0.822003E+10
     3626.00  0.121788E+10 0.200522E+10 0.281397E+09 0.800782E+10
     3636.00  0.119761E+10 0.201777E+10 0.248968E+09 0.779857E+10
     3646.00  0.117753E+10 0.202972E+10 0.218833E+09 0.759231E+10
     3656.00  0.115763E+10 0.204107E+10 0.190929E+09 0.738907E+10
     3666.00  0.113792E+10 0.205182E+10 0.165196E+09 0.718886E+10
     3676.00  0.111840E+10 0.206197E+10 0.141573E+09 0.699171E+10
     3686.00  0.109906E+10 0.207152E+10 0.120001E+09 0.679763E+10
     3696.00  0.107992E+10 0.208049E+10 0.100420E+09 0.660663E+10
     3706.00  0.106097E+10 0.208886E+10 0.827711E+08 0.641874E+10
     3716.00  0.104221E+10 0.209665E+10 0.669971E+08 0.623395E+10
     3726.00  0.102365E+10 0.210387E+10 0.530407E+08 0.605227E+10
     3736.00  0.100528E+10 0.211051E+10 0.408451E+08 0.587372E+10
     3746.00  0.987108E+09 0.211657E+10 0.303548E+08 0.569830E+10
     3756.00  0.969135E+09 0.212208E+10 0.215146E+08 0.552600E+10
     3766.00  0.951359E+09 0.212702E+10 0.142702E+08 0.535683E+10
     3776.00  0.933782E+09 0.213141E+10 0.856811E+07 0.519080E+10
     3786.00  0.916405E+09 0.213526E+10 0.435550E+07 0.502788E+10
     3796.00  0.899228E+09 0.213856E+10 0.158035E+07 0.486809E+10
     3806.00  0.882251E+09 0.214132E+10 0.191426E+06 0.471141E+10
     3816.00  0.865474E+09 0.214356E+10 0.138261E+06 0.455783E+10
     3826.00  0.848899E+09 0.214527E+10 0.137119E+07 0.440735E+10
     3836.00  0.832525E+09 0.214647E+10 0.384135E+07 0.425996E+10
     3846.00  0.816352E+09 0.214715E+10 0.750066E+07 0.411564E+10
     3856.00  0.800380E+09 0.214734E+10 0.123019E+08 0.397438E+10
     3866.00  0.784609E+09 0.214703E+10 0.181986E+08 0.383616E+10
     3876.00  0.769040E+09 0.214623E+10 0.251451E+08 0.370097E+10
     3886.00  0.753671E+09 0.214495E+10 0.330966E+08 0.356879E+10
     3896.00  0.738503E+09 0.214320E+10 0.420091E+08 0.343959E+10
     3906.00  0.723535E+09 0.214099E+10 0.518394E+08 0.331337E+10
     3916.00  0.708767E+09 0.213831E+10 0.625452E+08 0.319010E+10
     3926.00  0.694199E+09 0.213519E+10 0.740849E+08 0.306975E+10
     3936.00  0.679830E+09 0.213162E+10 0.864178E+08 0.295230E+10
     3946.00  0.665659E+09 0.212762E+10 0.995041E+08 0.283773E+10
     3956.00  0.651685E+09 0.212320E+10 0.113304E+09 0.272602E+10
     3966.00  0.637909E+09 0.211835E+10 0.127781E+09 0.261713E+10
     3976.00  0.624330E+09 0.211310E+10 0.142896E+09 0.251104E+10
     3986.00  0.610946E+09 0.210745E+10 0.158612E+09 0.240773E+10
     3996.00  0.597757E+09 0.210140E+10 0.174895E+09 0.230716E+10
     4006.00  0.584762E+09 0.209496E+10 0.191709E+09 0.220930E+10
     4016.00  0.571960E+09 0.208815E+10 0.209019E+09 0.211412E+10
     4026.00  0.559350E+09 0.208097E+10 0.226793E+09 0.202160E+10
     4036.00  0.546932E+09 0.207343E+10 0.244998E+09 0.193171E+10
     4046.00  0.534703E+09 0.206554E+10 0.263601E+09 0.184440E+10
     4056.00  0.522663E+09 0.205731E+10 0.282572E+09 0.175965E+10
     4066.00  0.510811E+09 0.204874E+10 0.301880E+09 0.167742E+10
     4076.00  0.499146E+09 0.203984E+10 0.321496E+09 0.159769E+10
     4086.00  0.487666E+09 0.203062E+10 0.341392E+09 0.152041E+10
     4096.00  0.476371E+09 0.202109E+10 0.361538E+09 0.144556E+10
     4106.00  0.465258E+09 0.201126E+10 0.381908E+09 0.137309E+10
     4116.00  0.454327E+09 0.200113E+10 0.402475E+09 0.130298E+10
     4126.00  0.443577E+09 0.199072E+10 0.423214E+09 0.123519E+10
     4136.00  0.433006E+09 0.198003E+10 0.444099E+09 0.116968E+10
     4146.00  0.422612E+09 0.196908E+10 0.465106E+09 0.110641E+10
     4156.00  0.412395E+09 0.195786E+10 0.486211E+09 0.104536E+10
     4166.00  0.402352E+09 0.194638E+10 0.507392E+09 0.986488E+09
     4176.00  0.392483E+09 0.193466E+10 0.528626E+09 0.929751E+09
     4186.00  0.382786E+09 0.192271E+10 0.549892E+09 0.875116E+09
     4196.00  0.373259E+09 0.191052E+10 0.571168E+09 0.822546E+09
     4206.00  0.363901E+09 0.189811E+10 0.592435E+09 0.772006E+09
     4216.00  0.354711E+09 0.188549E+10 0.613673E+09 0.723457E+09
     4226.00  0.345686E+09 0.187266E+10 0.634863E+09 0.676864E+09
     4236.00  0.336826E+09 0.185963E+10 0.655987E+09 0.632189E+09
     4246.00  0.328128E+09 0.184641E+10 0.677027E+09 0.589396E+09
     4256.00  0.319591E+09 0.183301E+10 0.697967E+09 0.548447E+09
     4266.00  0.311213E+09 0.181943E+10 0.718789E+09 0.509307E+09
     4276.00  0.302994E+09 0.180568E+10 0.739478E+09 0.471938E+09
     4286.00  0.294930E+09 0.179177E+10 0.760019E+09 0.436304E+09
     4296.00  0.287021E+09 0.177770E+10 0.780398E+09 0.402368E+09
     4306.00  0.279265E+09 0.176349E+10 0.800600E+09 0.370094E+09
     4316.00  0.271660E+09 0.174914E+10 0.820611E+09 0.339445E+09
     4326.00  0.264205E+09 0.173465E+10 0.840420E+09 0.310387E+09
     4336.00  0.256897E+09 0.172004E+10 0.860014E+09 0.282882E+09
     4346.00  0.249736E+09 0.170531E+10 0.879380E+09 0.256895E+09
     4356.00  0.242719E+09 0.169046E+10 0.898508E+09 0.232390E+09
     4366.00  0.235844E+09 0.167551E+10 0.917386E+09 0.209333E+09
     4376.00  0.229111E+09 0.166046E+10 0.936005E+09 0.187688E+09
     4386.00  0.222516E+09 0.164531E+10 0.954355E+09 0.167421E+09
     4396.00  0.216059E+09 0.163008E+10 0.972426E+09 0.148496E+09
     4406.00  0.209738E+09 0.161477E+10 0.990210E+09 0.130880E+09
     4416.00  0.203552E+09 0.159938E+10 0.100770E+10 0.114539E+09
     4426.00  0.197497E+09 0.158392E+10 0.102488E+10 0.994393E+08
     4436.00  0.191573E+09 0.156840E+10 0.104176E+10 0.855470E+08
     4446.00  0.185778E+09 0.155282E+10 0.105831E+10 0.728293E+08
     4456.00  0.180110E+09 0.153719E+10 0.107455E+10 0.612537E+08
     4466.00  0.174568E+09 0.152151E+10 0.109045E+10 0.507878E+08
     4476.00  0.169149E+09 0.150580E+10 0.110601E+10 0.413994E+08
     4486.00  0.163852E+09 0.149005E+10 0.112124E+10 0.330570E+08
     4511.00  0.151134E+09 0.145055E+10 0.115777E+10 0.165727E+08
     4536.00  0.139140E+09 0.141095E+10 0.119207E+10 0.595223E+07
     4561.00  0.127846E+09 0.137132E+10 0.122409E+10 0.732136E+06
     4586.00  0.117224E+09 0.133174E+10 0.125378E+10 0.464402E+06
     4611.00  0.107249E+09 0.129227E+10 0.128113E+10 0.471713E+07
     4636.00  0.978956E+08 0.125297E+10 0.130611E+10 0.130748E+08
     4661.00  0.891387E+08 0.121392E+10 0.132872E+10 0.251388E+08
     4686.00  0.809534E+08 0.117516E+10 0.134897E+10 0.405270E+08
     4711.00  0.733155E+08 0.113676E+10 0.136686E+10 0.588746E+08
     4736.00  0.662012E+08 0.109875E+10 0.138243E+10 0.798336E+08
     4761.00  0.595871E+08 0.106119E+10 0.139570E+10 0.103073E+09
     4786.00  0.534505E+08 0.102412E+10 0.140671E+10 0.128279E+09
     4811.00  0.477690E+08 0.987586E+09 0.141550E+10 0.155154E+09
     4836.00  0.425210E+08 0.951615E+09 0.142212E+10 0.183418E+09
     4861.00  0.376853E+08 0.916244E+09 0.142664E+10 0.212806E+09
     4886.00  0.332412E+08 0.881504E+09 0.142909E+10 0.243070E+09
     4911.00  0.291686E+08 0.847420E+09 0.142956E+10 0.273977E+09
     4936.00  0.254482E+08 0.814019E+09 0.142810E+10 0.305310E+09
     4961.00  0.220610E+08 0.781320E+09 0.142479E+10 0.336867E+09
     4986.00  0.189888E+08 0.749344E+09 0.141970E+10 0.368459E+09
     5011.00  0.162138E+08 0.718106E+09 0.141289E+10 0.399915E+09
     5036.00  0.137189E+08 0.687621E+09 0.140445E+10 0.431073E+09
     5061.00  0.114877E+08 0.657899E+09 0.139445E+10 0.461788E+09
     5086.00  0.950417E+07 0.628950E+09 0.138298E+10 0.491926E+09
     5111.00  0.775299E+07 0.600782E+09 0.137010E+10 0.521364E+09
     5136.00  0.621940E+07 0.573399E+09 0.135589E+10 0.549995E+09
     5161.00  0.488920E+07 0.546804E+09 0.134045E+10 0.577720E+09
     5186.00  0.374876E+07 0.521000E+09 0.132383E+10 0.604451E+09
     5211.00  0.278501E+07 0.495987E+09 0.130613E+10 0.630112E+09
     5236.00  0.198540E+07 0.471761E+09 0.128741E+10 0.654635E+09
     5261.00  0.133796E+07 0.448321E+09 0.126776E+10 0.677963E+09
     5286.00  0.831230E+06 0.425661E+09 0.124725E+10 0.700047E+09
     5311.00  0.454258E+06 0.403775E+09 0.122595E+10 0.720846E+09
     5336.00  0.196611E+06 0.382656E+09 0.120393E+10 0.740328E+09
     5361.00  0.483480E+05 0.362297E+09 0.118126E+10 0.758468E+09
     5386.00  0.109139E+02 0.342687E+09 0.115802E+10 0.775248E+09
     5411.00  0.426132E+05 0.323816E+09 0.113426E+10 0.790655E+09
     5436.00  0.167627E+06 0.305673E+09 0.111006E+10 0.804686E+09
     5461.00  0.366970E+06 0.288247E+09 0.108547E+10 0.817338E+09
     5511.00  0.958467E+06 0.255489E+09 0.103537E+10 0.838539E+09
     5561.00  0.176088E+07 0.225436E+09 0.984428E+09 0.854356E+09
     5611.00  0.272426E+07 0.197969E+09 0.933054E+09 0.864954E+09
     5661.00  0.380458E+07 0.172965E+09 0.881633E+09 0.870551E+09
     5711.00  0.496325E+07 0.150297E+09 0.830512E+09 0.871411E+09
     5761.00  0.616674E+07 0.129833E+09 0.780000E+09 0.867832E+09
     5811.00  0.738618E+07 0.111442E+09 0.730370E+09 0.860135E+09
     5861.00  0.859696E+07 0.949927E+08 0.681864E+09 0.848662E+09
     5911.00  0.977839E+07 0.803533E+08 0.634686E+09 0.833766E+09
     5961.00  0.109133E+08 0.673954E+08 0.589014E+09 0.815802E+09
     6011.00  0.119877E+08 0.559927E+08 0.544990E+09 0.795128E+09
     6061.00  0.129905E+08 0.460229E+08 0.502734E+09 0.772096E+09
     6111.00  0.139132E+08 0.373677E+08 0.462336E+09 0.747048E+09
     6161.00  0.147494E+08 0.299133E+08 0.423864E+09 0.720316E+09
     6211.00  0.154950E+08 0.235512E+08 0.387364E+09 0.692218E+09
     6261.00  0.161475E+08 0.181779E+08 0.352862E+09 0.663052E+09
     6311.00  0.167059E+08 0.136955E+08 0.320367E+09 0.633104E+09
     6361.00  0.171707E+08 0.100117E+08 0.289870E+09 0.602635E+09
     6411.00  0.175432E+08 0.703986E+07 0.261349E+09 0.571888E+09
     6461.00  0.178259E+08 0.469891E+07 0.234771E+09 0.541087E+09
     6511.00  0.180222E+08 0.291349E+07 0.210090E+09 0.510434E+09
     6561.00  0.181357E+08 0.161376E+07 0.187253E+09 0.480110E+09
     6611.00  0.181710E+08 0.735250E+06 0.166197E+09 0.450277E+09
     6661.00  0.181326E+08 0.218746E+06 0.146855E+09 0.421077E+09
     6711.00  0.180257E+08 0.100904E+05 0.129154E+09 0.392633E+09
     6761.00  0.178555E+08 0.599767E+05 0.113017E+09 0.365051E+09
     6811.00  0.176273E+08 0.323734E+06 0.983646E+08 0.338419E+09
     6861.00  0.173463E+08 0.761094E+06 0.851161E+08 0.312809E+09
     6911.00  0.170181E+08 0.133595E+07 0.731896E+08 0.288279E+09
     6961.00  0.166477E+08 0.201612E+07 0.625027E+08 0.264873E+09
     7011.00  0.162403E+08 0.277309E+07 0.529739E+08 0.242620E+09
     7061.00  0.158008E+08 0.358177E+07 0.445229E+08 0.221541E+09
     7111.00  0.153341E+08 0.442026E+07 0.370707E+08 0.201644E+09
     7161.00  0.148445E+08 0.526961E+07 0.305408E+08 0.182928E+09
     7211.00  0.143366E+08 0.611355E+07 0.248588E+08 0.165383E+09
     7261.00  0.138141E+08 0.693833E+07 0.199532E+08 0.148992E+09
     7311.00  0.132811E+08 0.773245E+07 0.157555E+08 0.133733E+09
     7361.00  0.127409E+08 0.848647E+07 0.122004E+08 0.119575E+09
     7411.00  0.121969E+08 0.919280E+07 0.922586E+07 0.106485E+09
     7511.00  0.111089E+08 0.104403E+08 0.478711E+07 0.833575E+08
     7611.00  0.100381E+08 0.114445E+08 0.201149E+07 0.640133E+08
     7711.00  0.900108E+07 0.121940E+08 0.526071E+06 0.480865E+08
     7811.00  0.801102E+07 0.126915E+08 0.111666E+05 0.351976E+08
     7911.00  0.707759E+07 0.129502E+08 0.197370E+06 0.249678E+08
     8011.00  0.620753E+07 0.129906E+08 0.861731E+06 0.170302E+08
     8111.00  0.540499E+07 0.128377E+08 0.182339E+07 0.110378E+08
     8211.00  0.467192E+07 0.125190E+08 0.293892E+07 0.666924E+07
     8311.00  0.400847E+07 0.120629E+08 0.409767E+07 0.363210E+07
     8411.00  0.341330E+07 0.114972E+08 0.521714E+07 0.166525E+07
     8511.00  0.288394E+07 0.108485E+08 0.623859E+07 0.539092E+06
     8611.00  0.241702E+07 0.101410E+08 0.712303E+07 0.550994E+05
     8711.00  0.200860E+07 0.939682E+07 0.784752E+07 0.443831E+05
     8811.00  0.165429E+07 0.863509E+07 0.840185E+07 0.365741E+06
     8911.00  0.134950E+07 0.787233E+07 0.878569E+07 0.903306E+06
     9011.00  0.108957E+07 0.712226E+07 0.900602E+07 0.156398E+07
     9111.00  0.869855E+06 0.639602E+07 0.907509E+07 0.227476E+07
     9211.00  0.685881E+06 0.570231E+07 0.900860E+07 0.298014E+07
     9311.00  0.533362E+06 0.504762E+07 0.882427E+07 0.363950E+07
     9411.00  0.408279E+06 0.443653E+07 0.854075E+07 0.422476E+07
     9511.00  0.306907E+06 0.387186E+07 0.817662E+07 0.471818E+07
     9611.00  0.225836E+06 0.335501E+07 0.774982E+07 0.511033E+07
     9711.00  0.161974E+06 0.288615E+07 0.727708E+07 0.539834E+07
     9811.00  0.112555E+06 0.246447E+07 0.677366E+07 0.558437E+07
     9911.00  0.751245E+05 0.208837E+07 0.625309E+07 0.567424E+07
    10011.00  0.475260E+05 0.175565E+07 0.572716E+07 0.567635E+07
    10111.00  0.278854E+05 0.146369E+07 0.520583E+07 0.560074E+07
    10211.00  0.145891E+05 0.120957E+07 0.469732E+07 0.545833E+07
    10311.00  0.626196E+04 0.990205E+06 0.420822E+07 0.526032E+07
    10411.00  0.174471E+04 0.802430E+06 0.374360E+07 0.501773E+07
    10511.00  0.711922E+02 0.643103E+06 0.330715E+07 0.474104E+07
    10611.00  0.446076E+03 0.509153E+06 0.290135E+07 0.443999E+07
    10711.00  0.222369E+04 0.397638E+06 0.252764E+07 0.412337E+07
    10811.00  0.488805E+04 0.305779E+06 0.218658E+07 0.379895E+07
    10911.00  0.803441E+04 0.230988E+06 0.187798E+07 0.347344E+07
    11011.00  0.113524E+05 0.170880E+06 0.160106E+07 0.315251E+07
    11111.00  0.146106E+05 0.123284E+06 0.135458E+07 0.284080E+07
    11211.00  0.176434E+05 0.862444E+05 0.113693E+07 0.254199E+07
    11311.00  0.203383E+05 0.580158E+05 0.946269E+06 0.225892E+07
    11411.00  0.226262E+05 0.370567E+05 0.780586E+06 0.199360E+07
    11511.00  0.244718E+05 0.220184E+05 0.637782E+06 0.174737E+07
    11611.00  0.258658E+05 0.117323E+05 0.515731E+06 0.152096E+07
    11711.00  0.268191E+05 0.519602E+04 0.412329E+06 0.131460E+07
    11811.00  0.273564E+05 0.155875E+04 0.325537E+06 0.112810E+07
    11911.00  0.275124E+05 0.106084E+03 0.253408E+06 0.960908E+06
    12011.00  0.273278E+05 0.245464E+03 0.194108E+06 0.812226E+06
    12111.00  0.268468E+05 0.149182E+04 0.145933E+06 0.681051E+06
    12211.00  0.261143E+05 0.345403E+04 0.107320E+06 0.566235E+06
    12311.00  0.251746E+05 0.582221E+04 0.768446E+05 0.466543E+06
    12411.00  0.240701E+05 0.835598E+04 0.532280E+05 0.380691E+06
    12511.00  0.228401E+05 0.108738E+05 0.353294E+05 0.307382E+06
    12611.00  0.215206E+05 0.132433E+05 0.221420E+05 0.245336E+06
    12711.00  0.201437E+05 0.153728E+05 0.127859E+05 0.193314E+06
    12811.00  0.187378E+05 0.172034E+05 0.649871E+04 0.150135E+06
    12911.00  0.173271E+05 0.187027E+05 0.262712E+04 0.114687E+06
    13011.00  0.159322E+05 0.198592E+05 0.616507E+03 0.859389E+05
    13111.00  0.145700E+05 0.206768E+05 0.136800E+01 0.629434E+05
    13211.00  0.132542E+05 0.211714E+05 0.395623E+03 0.448398E+05
    13311.00  0.119956E+05 0.213670E+05 0.148329E+04 0.308542E+05
    13411.00  0.108020E+05 0.212930E+05 0.300966E+04 0.202976E+05
    13511.00  0.967897E+04 0.209820E+05 0.477301E+04 0.125621E+05
    13611.00  0.863012E+04 0.204679E+05 0.661703E+04 0.711682E+04
    13711.00  0.765719E+04 0.197846E+05 0.842386E+04 0.350254E+04
    13811.00  0.676048E+04 0.189648E+05 0.101078E+05 0.132588E+04
    13911.00  0.593904E+04 0.180392E+05 0.116098E+05 0.253466E+03
    14011.00  0.519097E+04 0.170362E+05 0.128926E+05 0.588253E+01
    14111.00  0.451358E+04 0.159815E+05 0.139360E+05 0.351777E+03
    14211.00  0.390358E+04 0.148977E+05 0.147338E+05 0.110215E+04
    14311.00  0.335730E+04 0.138046E+05 0.152901E+05 0.210496E+04
    14411.00  0.287072E+04 0.127189E+05 0.156167E+05 0.324008E+04
    14511.00  0.243969E+04 0.116546E+05 0.157309E+05 0.441460E+04
    14611.00  0.206000E+04 0.106231E+05 0.156539E+05 0.555867E+04
    14711.00  0.172742E+04 0.963354E+04 0.154087E+05 0.662166E+04
    14811.00  0.143780E+04 0.869261E+04 0.150192E+05 0.756876E+04
    14911.00  0.118714E+04 0.780526E+04 0.145095E+05 0.837806E+04
    15011.00  0.971592E+03 0.697470E+04 0.139026E+05 0.903789E+04
    15111.00  0.787493E+03 0.620272E+04 0.132206E+05 0.954465E+04
    15211.00  0.631411E+03 0.548986E+04 0.124834E+05 0.990095E+04
    15311.00  0.500135E+03 0.483566E+04 0.117095E+05 0.101139E+05
    15411.00  0.390689E+03 0.423882E+04 0.109151E+05 0.101939E+05
    15511.00  0.300337E+03 0.369739E+04 0.101143E+05 0.101536E+05
    15611.00  0.226571E+03 0.320893E+04 0.931923E+04 0.100068E+05
    15711.00  0.167114E+03 0.277061E+04 0.854001E+04 0.976794E+04
    15811.00  0.119909E+03 0.237937E+04 0.778492E+04 0.945149E+04
    15911.00  0.831068E+02 0.203199E+04 0.706050E+04 0.907156E+04
    16011.00  0.550574E+02 0.172516E+04 0.637173E+04 0.864156E+04
    16111.00  0.342974E+02 0.145559E+04 0.572222E+04 0.817401E+04
    16211.00  0.195361E+02 0.122005E+04 0.511433E+04 0.768033E+04
    16311.00  0.964397E+01 0.101538E+04 0.454935E+04 0.717081E+04
    16411.00  0.363895E+01 0.838563E+03 0.402771E+04 0.665458E+04
    16511.00  0.674124E+00 0.686745E+03 0.354905E+04 0.613954E+04
    16611.00  0.254240E-01 0.557227E+03 0.311243E+04 0.563242E+04
    16711.00  0.107976E+01 0.447496E+03 0.271640E+04 0.513886E+04
    16811.00  0.332374E+01 0.355226E+03 0.235916E+04 0.466344E+04
    16911.00  0.633296E+01 0.278276E+03 0.203862E+04 0.420974E+04
    17011.00  0.976197E+01 0.214691E+03 0.175251E+04 0.378049E+04
    17111.00  0.133348E+02 0.162694E+03 0.149845E+04 0.337759E+04
    17211.00  0.168362E+02 0.120680E+03 0.127401E+04 0.300224E+04
    17311.00  0.201037E+02 0.872073E+02 0.107675E+04 0.265502E+04
    17411.00  0.230198E+02 0.609895E+02 0.904294E+03 0.233600E+04
    17511.00  0.255054E+02 0.408824E+02 0.754322E+03 0.204477E+04
    17611.00  0.275135E+02 0.258756E+02 0.624623E+03 0.178059E+04
    17711.00  0.290239E+02 0.150813E+02 0.513103E+03 0.154239E+04
    17811.00  0.300373E+02 0.772425E+01 0.417794E+03 0.132892E+04
    17911.00  0.305718E+02 0.313132E+01 0.336868E+03 0.113871E+04
    18011.00  0.306584E+02 0.722250E+00 0.268637E+03 0.970238E+03
    18111.00  0.303373E+02 0.246901E-03 0.211550E+03 0.821868E+03
    18211.00  0.296554E+02 0.543465E+00 0.164195E+03 0.691960E+03
    18311.00  0.286633E+02 0.199692E+01 0.125292E+03 0.578881E+03
    18411.00  0.274132E+02 0.406501E+01 0.936884E+02 0.481030E+03
    18511.00  0.259572E+02 0.650457E+01 0.683484E+02 0.396861E+03
    18611.00  0.243456E+02 0.911858E+01 0.483493E+02 0.324907E+03
    18711.00  0.226261E+02 0.117502E+02 0.328713E+02 0.263785E+03
    18811.00  0.208423E+02 0.142778E+02 0.211894E+02 0.212206E+03
    18911.00  0.190338E+02 0.166095E+02 0.126662E+02 0.168985E+03
    19011.00  0.172352E+02 0.186795E+02 0.674322E+01 0.133034E+03
    19111.00  0.154763E+02 0.204438E+02 0.293389E+01 0.103372E+03
    19311.00  0.121716E+02 0.229677E+02 0.273484E-01 0.594734E+02
    19511.00  0.926010E+01 0.241405E+02 0.123514E+01 0.313359E+02
    19711.00  0.681302E+01 0.240813E+02 0.459439E+01 0.143548E+02
    19911.00  0.484494E+01 0.230024E+02 0.873387E+01 0.506001E+01
    20111.00  0.332853E+01 0.211586E+02 0.127443E+02 0.897065E+00
    20311.00  0.220921E+01 0.188105E+02 0.160716E+02 0.217511E-01
    20511.00  0.141843E+01 0.161994E+02 0.184298E+02 0.112306E+01
    20711.00  0.884489E+00 0.135310E+02 0.197289E+02 0.327946E+01
    20911.00  0.540475E+00 0.109673E+02 0.200160E+02 0.584917E+01
    21111.00  0.329309E+00 0.862484E+01 0.194267E+02 0.839123E+01
    21311.00  0.206090E+00 0.657601E+01 0.181458E+02 0.106113E+02
    21511.00  0.138290E+00 0.485510E+01 0.163767E+02 0.123260E+02
    21711.00  0.104369E+00 0.346497E+01 0.143178E+02 0.134398E+02
    21911.00  0.914658E-01 0.238514E+01 0.121461E+02 0.139277E+02
    22111.00  0.927291E-01 0.157954E+01 0.100074E+02 0.138215E+02
    22311.00  0.104771E+00 0.100362E+01 0.801125E+01 0.131964E+02
    22511.00  0.125583E+00 0.610426E+00 0.623099E+01 0.121571E+02
    22711.00  0.153093E+00 0.355170E+00 0.470661E+01 0.108240E+02
    22911.00  0.184423E+00 0.198412E+00 0.345014E+01 0.932065E+01
    23111.00  0.215766E+00 0.107857E+00 0.245195E+01 0.776251E+01
    23311.00  0.242752E+00 0.589553E-01 0.168746E+01 0.624845E+01
    23511.00  0.261093E+00 0.345379E-01 0.112334E+01 0.485527E+01
    23711.00  0.267322E+00 0.237902E-01 0.722806E+00 0.363528E+01
    23911.00  0.259437E+00 0.208314E-01 0.449660E+00 0.261643E+01
    24111.00  0.237321E+00 0.231650E-01 0.271161E+00 0.180490E+01
    24311.00  0.202871E+00 0.302148E-01 0.159654E+00 0.118925E+01
    24511.00  0.159797E+00 0.421012E-01 0.932215E-01 0.745631E+00
    24711.00  0.113157E+00 0.587556E-01 0.555780E-01 0.443184E+00
    24911.00  0.686880E-01 0.794056E-01 0.354357E-01 0.249054E+00
    25111.00  0.320390E-01 0.102416E+00 0.255887E-01 0.132438E+00
    25311.00  0.802730E-02 0.125420E+00 0.218892E-01 0.672899E-01
    25511.00  0.117544E-04 0.145660E+00 0.222636E-01 0.336475E-01
    25711.00  0.946513E-02 0.160432E+00 0.258574E-01 0.176955E-01
    25911.00  0.357955E-01 0.167543E+00 0.323642E-01 0.109341E-01
    26111.00  0.764284E-01 0.165682E+00 0.415505E-01 0.885623E-02
    26311.00  0.127130E+00 0.154666E+00 0.529724E-01 0.953298E-02
    26511.00  0.182521E+00 0.135501E+00 0.658558E-01 0.123912E-01
    26711.00  0.236710E+00 0.110276E+00 0.791087E-01 0.173325E-01
    26911.00  0.283967E+00 0.818956E-01 0.914257E-01 0.242149E-01



         11        11         2       781D   C   D    0.822591500D+05
     208    242
 E STATE HAS LABEL D   
 VIBRATIONAL LEVELS FOR STATE E IN 1/CM FOR J= 10
      -2470.00104      -405.55245
 PROPORTION OF STATE C   
  0.291773E-05 0.635320E-05
 PROPORTION OF STATE D   
  0.999997E+00 0.999994E+00
 TABLE FOR EMISSION PROBABILITIES   E(J= 10,IE) ==>F(J= 10,IF)
         IE==>      0            1
        1.00  0.456743E-19 0.785027E-20
        2.00  0.558295E-16 0.806203E-17
        3.00  0.336837E-14 0.402441E-15
        4.00  0.596171E-13 0.578554E-14
        5.00  0.540675E-12 0.416666E-13
        6.00  0.321951E-11 0.191525E-12
        7.00  0.143624E-10 0.635900E-12
        8.00  0.519224E-10 0.162933E-11
        9.00  0.159996E-09 0.332148E-11
       10.00  0.434927E-09 0.538113E-11
       11.00  0.106879E-08 0.660120E-11
       12.00  0.241737E-08 0.514982E-11
       13.00  0.510134E-08 0.989579E-12
       14.00  0.101506E-07 0.332351E-11
       15.00  0.192034E-07 0.478426E-10
       16.00  0.347740E-07 0.231146E-09
       17.00  0.606018E-07 0.773063E-09
       18.00  0.102100E-06 0.212183E-08
       19.00  0.166920E-06 0.512216E-08
       20.00  0.265651E-06 0.112724E-07
       21.00  0.412673E-06 0.231042E-07
       22.00  0.627190E-06 0.447257E-07
       23.00  0.934464E-06 0.825804E-07
       24.00  0.136727E-05 0.146481E-06
       25.00  0.196759E-05 0.250996E-06
       26.00  0.278864E-05 0.417263E-06
       27.00  0.389711E-05 0.675355E-06
       28.00  0.537583E-05 0.106727E-05
       29.00  0.732673E-05 0.165074E-05
       30.00  0.987423E-05 0.250393E-05
       31.00  0.131691E-04 0.373126E-05
       32.00  0.173925E-04 0.547050E-05
       33.00  0.227610E-04 0.790134E-05
       34.00  0.295318E-04 0.112557E-04
       35.00  0.380082E-04 0.158300E-04
       36.00  0.485466E-04 0.219996E-04
       37.00  0.615628E-04 0.302358E-04
       38.00  0.775403E-04 0.411260E-04
       39.00  0.970386E-04 0.553962E-04
       40.00  0.120702E-03 0.739382E-04
       42.00  0.183588E-03 0.128421E-03
       44.00  0.273453E-03 0.216299E-03
       46.00  0.399640E-03 0.354407E-03
       48.00  0.574021E-03 0.566434E-03
       50.00  0.811512E-03 0.885116E-03
       52.00  0.113064E-02 0.135494E-02
       54.00  0.155421E-02 0.203547E-02
       56.00  0.211000E-02 0.300533E-02
       58.00  0.283162E-02 0.436704E-02
       60.00  0.375939E-02 0.625273E-02
       62.00  0.494136E-02 0.883086E-02
       64.00  0.643442E-02 0.123142E-01
       66.00  0.830552E-02 0.169687E-01
       68.00  0.106330E-01 0.231245E-01
       70.00  0.135079E-01 0.311875E-01
       72.00  0.170358E-01 0.416535E-01
       74.00  0.213380E-01 0.551231E-01
       76.00  0.265539E-01 0.723201E-01
       78.00  0.328425E-01 0.941102E-01
       80.00  0.403848E-01 0.121524E+00
       82.00  0.493859E-01 0.155780E+00
       84.00  0.600776E-01 0.198315E+00
       86.00  0.727210E-01 0.250810E+00
       88.00  0.876092E-01 0.315227E+00
       90.00  0.105070E+00 0.393844E+00
       92.00  0.125470E+00 0.489293E+00
       94.00  0.149217E+00 0.604607E+00
       96.00  0.176762E+00 0.743264E+00
       98.00  0.208606E+00 0.909236E+00
      100.00  0.245303E+00 0.110705E+01
      102.00  0.287463E+00 0.134185E+01
      104.00  0.335757E+00 0.161945E+01
      106.00  0.390922E+00 0.194642E+01
      108.00  0.453768E+00 0.233014E+01
      110.00  0.525180E+00 0.277892E+01
      112.00  0.606125E+00 0.330205E+01
      114.00  0.697660E+00 0.390990E+01
      116.00  0.800934E+00 0.461403E+01
      118.00  0.917198E+00 0.542731E+01
      122.00  0.119424E+01 0.743979E+01
      126.00  0.154105E+01 0.100804E+02
      130.00  0.197200E+01 0.135107E+02
      134.00  0.250380E+01 0.179257E+02
      138.00  0.315585E+01 0.235591E+02
      142.00  0.395055E+01 0.306895E+02
      146.00  0.491366E+01 0.396461E+02
      150.00  0.607467E+01 0.508168E+02
      154.00  0.746720E+01 0.646547E+02
      158.00  0.912944E+01 0.816874E+02
      162.00  0.111046E+02 0.102526E+03
      166.00  0.134416E+02 0.127873E+03
      170.00  0.161950E+02 0.158535E+03
      174.00  0.194261E+02 0.195429E+03
      178.00  0.232029E+02 0.239592E+03
      182.00  0.276001E+02 0.292193E+03
      186.00  0.326999E+02 0.354529E+03
      190.00  0.385915E+02 0.428043E+03
      194.00  0.453712E+02 0.514312E+03
      198.00  0.531415E+02 0.615051E+03
      202.00  0.620100E+02 0.732098E+03
      206.00  0.720880E+02 0.867392E+03
      210.00  0.834878E+02 0.102294E+04
      214.00  0.963197E+02 0.120078E+04
      218.00  0.110688E+03 0.140289E+04
      222.00  0.126686E+03 0.163117E+04
      226.00  0.144390E+03 0.188729E+04
      230.00  0.163854E+03 0.217262E+04
      234.00  0.185102E+03 0.248809E+04
      238.00  0.208120E+03 0.283406E+04
      242.00  0.232847E+03 0.321020E+04
      246.00  0.259173E+03 0.361535E+04
      250.00  0.286934E+03 0.404743E+04
      254.00  0.315906E+03 0.450342E+04
      258.00  0.345813E+03 0.497930E+04
      262.00  0.376330E+03 0.547017E+04
      266.00  0.407093E+03 0.597035E+04
      270.00  0.437711E+03 0.647357E+04
      274.00  0.467783E+03 0.697320E+04
      282.00  0.524733E+03 0.793515E+04
      290.00  0.575152E+03 0.880679E+04
      298.00  0.617049E+03 0.954992E+04
      306.00  0.649439E+03 0.101420E+05
      314.00  0.672298E+03 0.105765E+05
      322.00  0.686327E+03 0.108597E+05
      330.00  0.692674E+03 0.110069E+05
      338.00  0.692674E+03 0.110375E+05
      346.00  0.687652E+03 0.109723E+05
      354.00  0.678802E+03 0.108306E+05
      362.00  0.667138E+03 0.106296E+05
      370.00  0.653479E+03 0.103834E+05
      378.00  0.638472E+03 0.101040E+05
      386.00  0.622616E+03 0.980054E+04
      394.00  0.606282E+03 0.948048E+04
      402.00  0.589745E+03 0.914945E+04
      410.00  0.573198E+03 0.881179E+04
      418.00  0.556780E+03 0.847086E+04
      426.00  0.540588E+03 0.812922E+04
      434.00  0.524685E+03 0.778885E+04
      442.00  0.509113E+03 0.745128E+04
      450.00  0.493895E+03 0.711767E+04
      458.00  0.479042E+03 0.678893E+04
      466.00  0.464555E+03 0.646575E+04
      474.00  0.450433E+03 0.614872E+04
      482.00  0.436669E+03 0.583830E+04
      490.00  0.423257E+03 0.553489E+04
      498.00  0.410186E+03 0.523881E+04
      506.00  0.397446E+03 0.495030E+04
      514.00  0.385026E+03 0.466959E+04
      522.00  0.372914E+03 0.439688E+04
      530.00  0.361102E+03 0.413231E+04
      538.00  0.349581E+03 0.387604E+04
      546.00  0.338342E+03 0.362819E+04
      554.00  0.327376E+03 0.338884E+04
      562.00  0.316676E+03 0.315808E+04
      570.00  0.306234E+03 0.293594E+04
      578.00  0.296043E+03 0.272247E+04
      586.00  0.286096E+03 0.251769E+04
      596.00  0.273997E+03 0.227394E+04
      606.00  0.262261E+03 0.204376E+04
      616.00  0.250877E+03 0.182708E+04
      626.00  0.239835E+03 0.162380E+04
      636.00  0.229127E+03 0.143381E+04
      646.00  0.218744E+03 0.125694E+04
      656.00  0.208678E+03 0.109302E+04
      666.00  0.198924E+03 0.941842E+03
      676.00  0.189473E+03 0.803172E+03
      686.00  0.180322E+03 0.676759E+03
      696.00  0.171462E+03 0.562326E+03
      706.00  0.162888E+03 0.459581E+03
      716.00  0.154597E+03 0.368213E+03
      726.00  0.146582E+03 0.287897E+03
      736.00  0.138838E+03 0.218291E+03
      746.00  0.131362E+03 0.159042E+03
      756.00  0.124149E+03 0.109785E+03
      766.00  0.117193E+03 0.701471E+02
      776.00  0.110490E+03 0.397468E+02
      786.00  0.104036E+03 0.181974E+02
      796.00  0.978261E+02 0.510750E+01
      806.00  0.918564E+02 0.826272E-01
      816.00  0.861222E+02 0.272667E+01
      826.00  0.806189E+02 0.126431E+02
      836.00  0.753421E+02 0.294362E+02
      846.00  0.702873E+02 0.527120E+02
      856.00  0.654501E+02 0.820793E+02
      866.00  0.608261E+02 0.117151E+03
      876.00  0.564110E+02 0.157543E+03
      886.00  0.522004E+02 0.202880E+03
      896.00  0.481898E+02 0.252790E+03
      906.00  0.443749E+02 0.306906E+03
      916.00  0.407513E+02 0.364874E+03
      926.00  0.373147E+02 0.426342E+03
      936.00  0.340609E+02 0.490970E+03
      946.00  0.309856E+02 0.558426E+03
      956.00  0.280844E+02 0.628387E+03
      966.00  0.253533E+02 0.700541E+03
      976.00  0.227878E+02 0.774584E+03
      986.00  0.203838E+02 0.850222E+03
      996.00  0.181371E+02 0.927172E+03
     1006.00  0.160436E+02 0.100516E+04
     1016.00  0.140991E+02 0.108393E+04
     1026.00  0.122996E+02 0.116323E+04
     1036.00  0.106408E+02 0.124282E+04
     1046.00  0.911891E+01 0.132247E+04
     1056.00  0.772976E+01 0.140195E+04
     1066.00  0.646943E+01 0.148107E+04
     1076.00  0.533397E+01 0.155962E+04
     1086.00  0.431951E+01 0.163742E+04
     1096.00  0.342220E+01 0.171428E+04
     1106.00  0.263825E+01 0.179005E+04
     1116.00  0.196388E+01 0.186457E+04
     1126.00  0.139540E+01 0.193768E+04
     1136.00  0.929147E+00 0.200926E+04
     1146.00  0.561504E+00 0.207917E+04
     1156.00  0.288914E+00 0.214729E+04
     1166.00  0.107869E+00 0.221352E+04
     1176.00  0.149110E-01 0.227776E+04
     1186.00  0.663685E-02 0.233991E+04
     1196.00  0.796960E-01 0.239989E+04
     1206.00  0.230793E+00 0.245763E+04
     1216.00  0.456688E+00 0.251307E+04
     1226.00  0.754196E+00 0.256613E+04
     1236.00  0.112019E+01 0.261677E+04
     1246.00  0.155160E+01 0.266495E+04
     1256.00  0.204541E+01 0.271063E+04
     1266.00  0.259868E+01 0.275378E+04
     1276.00  0.320849E+01 0.279437E+04
     1286.00  0.387203E+01 0.283239E+04
     1296.00  0.458650E+01 0.286783E+04
     1306.00  0.534920E+01 0.290067E+04
     1316.00  0.615746E+01 0.293092E+04
     1326.00  0.700868E+01 0.295858E+04
     1336.00  0.790032E+01 0.298366E+04
     1346.00  0.882989E+01 0.300617E+04
     1356.00  0.979498E+01 0.302613E+04
     1366.00  0.107932E+02 0.304356E+04
     1376.00  0.118223E+02 0.305849E+04
     1386.00  0.128799E+02 0.307094E+04
     1396.00  0.139640E+02 0.308095E+04
     1406.00  0.150723E+02 0.308855E+04
     1416.00  0.162027E+02 0.309378E+04
     1426.00  0.173533E+02 0.309669E+04
     1436.00  0.185221E+02 0.309730E+04
     1446.00  0.197072E+02 0.309568E+04
     1456.00  0.209066E+02 0.309187E+04
     1466.00  0.221187E+02 0.308592E+04
     1476.00  0.233416E+02 0.307789E+04
     1486.00  0.245737E+02 0.306782E+04
     1496.00  0.258133E+02 0.305578E+04
     1506.00  0.270588E+02 0.304181E+04
     1516.00  0.283087E+02 0.302599E+04
     1526.00  0.295615E+02 0.300836E+04
     1536.00  0.308158E+02 0.298899E+04
     1546.00  0.320701E+02 0.296794E+04
     1556.00  0.333232E+02 0.294527E+04
     1566.00  0.345738E+02 0.292105E+04
     1576.00  0.358206E+02 0.289533E+04
     1586.00  0.370624E+02 0.286818E+04
     1596.00  0.382981E+02 0.283966E+04
     1606.00  0.395266E+02 0.280983E+04
     1616.00  0.407468E+02 0.277876E+04
     1626.00  0.419577E+02 0.274650E+04
     1636.00  0.431583E+02 0.271312E+04
     1646.00  0.443478E+02 0.267869E+04
     1656.00  0.455251E+02 0.264325E+04
     1666.00  0.466895E+02 0.260688E+04
     1676.00  0.478402E+02 0.256963E+04
     1686.00  0.489764E+02 0.253156E+04
     1696.00  0.500974E+02 0.249273E+04
     1706.00  0.512023E+02 0.245320E+04
     1716.00  0.522907E+02 0.241302E+04
     1726.00  0.533618E+02 0.237225E+04
     1736.00  0.544152E+02 0.233094E+04
     1746.00  0.554501E+02 0.228915E+04
     1756.00  0.564661E+02 0.224693E+04
     1766.00  0.574628E+02 0.220434E+04
     1776.00  0.584397E+02 0.216142E+04
     1786.00  0.593963E+02 0.211822E+04
     1796.00  0.603322E+02 0.207479E+04
     1806.00  0.612472E+02 0.203118E+04
     1816.00  0.621407E+02 0.198743E+04
     1826.00  0.630126E+02 0.194360E+04
     1836.00  0.638626E+02 0.189971E+04
     1846.00  0.646904E+02 0.185583E+04
     1856.00  0.654957E+02 0.181197E+04
     1866.00  0.662785E+02 0.176820E+04
     1876.00  0.670385E+02 0.172454E+04
     1886.00  0.677755E+02 0.168102E+04
     1896.00  0.684895E+02 0.163770E+04
     1906.00  0.691804E+02 0.159460E+04
     1916.00  0.698479E+02 0.155175E+04
     1926.00  0.704921E+02 0.150919E+04
     1936.00  0.711130E+02 0.146695E+04
     1946.00  0.717104E+02 0.142505E+04
     1956.00  0.722844E+02 0.138353E+04
     1966.00  0.728350E+02 0.134241E+04
     1976.00  0.733622E+02 0.130171E+04
     1986.00  0.738661E+02 0.126147E+04
     1996.00  0.743468E+02 0.122170E+04
     2006.00  0.748043E+02 0.118243E+04
     2016.00  0.752386E+02 0.114367E+04
     2026.00  0.756499E+02 0.110545E+04
     2036.00  0.760383E+02 0.106779E+04
     2046.00  0.764040E+02 0.103070E+04
     2056.00  0.767470E+02 0.994192E+03
     2066.00  0.770675E+02 0.958290E+03
     2076.00  0.773658E+02 0.923006E+03
     2086.00  0.776419E+02 0.888351E+03
     2096.00  0.778962E+02 0.854340E+03
     2106.00  0.781287E+02 0.820981E+03
     2116.00  0.783397E+02 0.788285E+03
     2126.00  0.785294E+02 0.756261E+03
     2136.00  0.786981E+02 0.724917E+03
     2146.00  0.788459E+02 0.694260E+03
     2156.00  0.789731E+02 0.664296E+03
     2166.00  0.790800E+02 0.635031E+03
     2176.00  0.791669E+02 0.606469E+03
     2186.00  0.792340E+02 0.578614E+03
     2196.00  0.792815E+02 0.551469E+03
     2206.00  0.793099E+02 0.525035E+03
     2216.00  0.793193E+02 0.499316E+03
     2226.00  0.793100E+02 0.474310E+03
     2236.00  0.792824E+02 0.450018E+03
     2246.00  0.792368E+02 0.426439E+03
     2256.00  0.791734E+02 0.403573E+03
     2266.00  0.790925E+02 0.381415E+03
     2276.00  0.789945E+02 0.359965E+03
     2286.00  0.788797E+02 0.339219E+03
     2296.00  0.787484E+02 0.319173E+03
     2306.00  0.786009E+02 0.299823E+03
     2316.00  0.784375E+02 0.281165E+03
     2326.00  0.782585E+02 0.263191E+03
     2336.00  0.780644E+02 0.245898E+03
     2346.00  0.778554E+02 0.229279E+03
     2356.00  0.776317E+02 0.213327E+03
     2366.00  0.773939E+02 0.198035E+03
     2376.00  0.771421E+02 0.183396E+03
     2386.00  0.768766E+02 0.169402E+03
     2396.00  0.765979E+02 0.156044E+03
     2406.00  0.763062E+02 0.143315E+03
     2416.00  0.760019E+02 0.131205E+03
     2426.00  0.756853E+02 0.119706E+03
     2436.00  0.753567E+02 0.108808E+03
     2446.00  0.750164E+02 0.985020E+02
     2456.00  0.746648E+02 0.887777E+02
     2466.00  0.743022E+02 0.796252E+02
     2476.00  0.739289E+02 0.710345E+02
     2486.00  0.735452E+02 0.629951E+02
     2496.00  0.731514E+02 0.554965E+02
     2506.00  0.727479E+02 0.485279E+02
     2516.00  0.723349E+02 0.420786E+02
     2526.00  0.719128E+02 0.361376E+02
     2536.00  0.714818E+02 0.306939E+02
     2546.00  0.710424E+02 0.257364E+02
     2556.00  0.705947E+02 0.212537E+02
     2566.00  0.701391E+02 0.172347E+02
     2576.00  0.696759E+02 0.136679E+02
     2586.00  0.692054E+02 0.105421E+02
     2596.00  0.687279E+02 0.784574E+01
     2606.00  0.682436E+02 0.556748E+01
     2616.00  0.677528E+02 0.369586E+01
     2626.00  0.672559E+02 0.221948E+01
     2636.00  0.667530E+02 0.112691E+01
     2646.00  0.662446E+02 0.406789E+00
     2656.00  0.657307E+02 0.477543E-01
     2666.00  0.652118E+02 0.385075E-01
     2676.00  0.646880E+02 0.367797E+00
     2686.00  0.641597E+02 0.102443E+01
     2696.00  0.636270E+02 0.199729E+01
     2706.00  0.630903E+02 0.327534E+01
     2716.00  0.625498E+02 0.484760E+01
     2726.00  0.620056E+02 0.670321E+01
     2736.00  0.614582E+02 0.883140E+01
     2746.00  0.609077E+02 0.112215E+02
     2756.00  0.603543E+02 0.138630E+02
     2766.00  0.597982E+02 0.167453E+02
     2776.00  0.592397E+02 0.198582E+02
     2786.00  0.586790E+02 0.231915E+02
     2796.00  0.581163E+02 0.267351E+02
     2806.00  0.575519E+02 0.304791E+02
     2816.00  0.569859E+02 0.344137E+02
     2826.00  0.564185E+02 0.385292E+02
     2836.00  0.558500E+02 0.428161E+02
     2846.00  0.552805E+02 0.472651E+02
     2856.00  0.547102E+02 0.518670E+02
     2866.00  0.541394E+02 0.566126E+02
     2876.00  0.535681E+02 0.614932E+02
     2886.00  0.529966E+02 0.665000E+02
     2896.00  0.524251E+02 0.716244E+02
     2906.00  0.518537E+02 0.768580E+02
     2916.00  0.512826E+02 0.821926E+02
     2926.00  0.507119E+02 0.876201E+02
     2936.00  0.501419E+02 0.931326E+02
     2946.00  0.495726E+02 0.987225E+02
     2956.00  0.490043E+02 0.104382E+03
     2966.00  0.484371E+02 0.110104E+03
     2976.00  0.478711E+02 0.115881E+03
     2986.00  0.473064E+02 0.121706E+03
     2996.00  0.467433E+02 0.127573E+03
     3006.00  0.461817E+02 0.133474E+03
     3016.00  0.456220E+02 0.139403E+03
     3026.00  0.450641E+02 0.145354E+03
     3036.00  0.445083E+02 0.151320E+03
     3046.00  0.439545E+02 0.157296E+03
     3056.00  0.434031E+02 0.163275E+03
     3066.00  0.428539E+02 0.169253E+03
     3076.00  0.423073E+02 0.175223E+03
     3086.00  0.417632E+02 0.181180E+03
     3096.00  0.412218E+02 0.187120E+03
     3106.00  0.406831E+02 0.193036E+03
     3116.00  0.401473E+02 0.198925E+03
     3126.00  0.396145E+02 0.204781E+03
     3136.00  0.390847E+02 0.210600E+03
     3146.00  0.385580E+02 0.216379E+03
     3156.00  0.380346E+02 0.222111E+03
     3166.00  0.375144E+02 0.227795E+03
     3176.00  0.369975E+02 0.233425E+03
     3186.00  0.364841E+02 0.238997E+03
     3196.00  0.359742E+02 0.244510E+03
     3206.00  0.354679E+02 0.249958E+03
     3216.00  0.349651E+02 0.255339E+03
     3226.00  0.344661E+02 0.260649E+03
     3236.00  0.339708E+02 0.265887E+03
     3246.00  0.334793E+02 0.271047E+03
     3256.00  0.329917E+02 0.276129E+03
     3266.00  0.325080E+02 0.281130E+03
     3276.00  0.320282E+02 0.286047E+03
     3286.00  0.315524E+02 0.290877E+03
     3296.00  0.310807E+02 0.295619E+03
     3306.00  0.306130E+02 0.300271E+03
     3316.00  0.301495E+02 0.304830E+03
     3326.00  0.296901E+02 0.309295E+03
     3336.00  0.292349E+02 0.313664E+03
     3346.00  0.287838E+02 0.317936E+03
     3356.00  0.283371E+02 0.322109E+03
     3366.00  0.278946E+02 0.326182E+03
     3376.00  0.274564E+02 0.330153E+03
     3386.00  0.270225E+02 0.334022E+03
     3396.00  0.265929E+02 0.337788E+03
     3406.00  0.261677E+02 0.341449E+03
     3416.00  0.257468E+02 0.345006E+03
     3426.00  0.253304E+02 0.348456E+03
     3436.00  0.249183E+02 0.351800E+03
     3446.00  0.245106E+02 0.355036E+03
     3456.00  0.241074E+02 0.358166E+03
     3466.00  0.237085E+02 0.361187E+03
     3476.00  0.233141E+02 0.364101E+03
     3486.00  0.229241E+02 0.366906E+03
     3496.00  0.225385E+02 0.369603E+03
     3506.00  0.221573E+02 0.372191E+03
     3516.00  0.217806E+02 0.374672E+03
     3526.00  0.214083E+02 0.377044E+03
     3536.00  0.210404E+02 0.379308E+03
     3546.00  0.206769E+02 0.381464E+03
     3556.00  0.203178E+02 0.383514E+03
     3566.00  0.199631E+02 0.385456E+03
     3576.00  0.196128E+02 0.387292E+03
     3586.00  0.192669E+02 0.389022E+03
     3596.00  0.189253E+02 0.390646E+03
     3606.00  0.185881E+02 0.392166E+03
     3616.00  0.182552E+02 0.393582E+03
     3626.00  0.179266E+02 0.394894E+03
     3636.00  0.176024E+02 0.396104E+03
     3646.00  0.172824E+02 0.397212E+03
     3656.00  0.169666E+02 0.398219E+03
     3666.00  0.166551E+02 0.399127E+03
     3676.00  0.163479E+02 0.399935E+03
     3686.00  0.160448E+02 0.400646E+03
     3696.00  0.157459E+02 0.401260E+03
     3706.00  0.154512E+02 0.401778E+03
     3716.00  0.151606E+02 0.402201E+03
     3726.00  0.148741E+02 0.402531E+03
     3736.00  0.145916E+02 0.402768E+03
     3746.00  0.143133E+02 0.402914E+03
     3756.00  0.140389E+02 0.402971E+03
     3766.00  0.137686E+02 0.402939E+03
     3776.00  0.135022E+02 0.402819E+03
     3786.00  0.132398E+02 0.402613E+03
     3796.00  0.129813E+02 0.402323E+03
     3806.00  0.127267E+02 0.401949E+03
     3816.00  0.124759E+02 0.401493E+03
     3826.00  0.122289E+02 0.400957E+03
     3836.00  0.119858E+02 0.400341E+03
     3846.00  0.117464E+02 0.399648E+03
     3856.00  0.115107E+02 0.398878E+03
     3866.00  0.112787E+02 0.398034E+03
     3876.00  0.110504E+02 0.397115E+03
     3886.00  0.108257E+02 0.396125E+03
     3896.00  0.106046E+02 0.395064E+03
     3906.00  0.103871E+02 0.393934E+03
     3916.00  0.101731E+02 0.392737E+03
     3926.00  0.996255E+01 0.391473E+03
     3936.00  0.975549E+01 0.390144E+03
     3946.00  0.955185E+01 0.388753E+03
     3956.00  0.935160E+01 0.387299E+03
     3966.00  0.915470E+01 0.385785E+03
     3976.00  0.896112E+01 0.384213E+03
     3986.00  0.877082E+01 0.382583E+03
     3996.00  0.858376E+01 0.380898E+03
     4006.00  0.839991E+01 0.379158E+03
     4016.00  0.821924E+01 0.377365E+03
     4026.00  0.804170E+01 0.375521E+03
     4036.00  0.786726E+01 0.373627E+03
     4046.00  0.769589E+01 0.371684E+03
     4056.00  0.752754E+01 0.369695E+03
     4066.00  0.736219E+01 0.367659E+03
     4076.00  0.719979E+01 0.365580E+03
     4086.00  0.704032E+01 0.363458E+03
     4096.00  0.688372E+01 0.361294E+03
     4106.00  0.672998E+01 0.359090E+03
     4116.00  0.657905E+01 0.356848E+03
     4126.00  0.643089E+01 0.354569E+03
     4136.00  0.628547E+01 0.352253E+03
     4146.00  0.614276E+01 0.349904E+03
     4156.00  0.600272E+01 0.347521E+03
     4166.00  0.586531E+01 0.345106E+03
     4176.00  0.573050E+01 0.342661E+03
     4186.00  0.559825E+01 0.340187E+03
     4196.00  0.546853E+01 0.337685E+03
     4206.00  0.534130E+01 0.335156E+03
     4216.00  0.521653E+01 0.332602E+03
     4226.00  0.509418E+01 0.330023E+03
     4236.00  0.497422E+01 0.327422E+03
     4246.00  0.485661E+01 0.324799E+03
     4256.00  0.474132E+01 0.322155E+03
     4266.00  0.462832E+01 0.319493E+03
     4276.00  0.451757E+01 0.316811E+03
     4286.00  0.440904E+01 0.314113E+03
     4296.00  0.430270E+01 0.311399E+03
     4306.00  0.419851E+01 0.308670E+03
     4316.00  0.409644E+01 0.305928E+03
     4326.00  0.399646E+01 0.303173E+03
     4336.00  0.389853E+01 0.300406E+03
     4346.00  0.380262E+01 0.297629E+03
     4356.00  0.370871E+01 0.294842E+03
     4366.00  0.361676E+01 0.292047E+03
     4376.00  0.352673E+01 0.289244E+03
     4386.00  0.343860E+01 0.286434E+03
     4396.00  0.335233E+01 0.283619E+03
     4406.00  0.326791E+01 0.280799E+03
     4416.00  0.318528E+01 0.277975E+03
     4426.00  0.310443E+01 0.275149E+03
     4436.00  0.302533E+01 0.272320E+03
     4446.00  0.294795E+01 0.269490E+03
     4456.00  0.287225E+01 0.266660E+03
     4466.00  0.279821E+01 0.263830E+03
     4476.00  0.272580E+01 0.261002E+03
     4486.00  0.265499E+01 0.258176E+03
     4511.00  0.248479E+01 0.251124E+03
     4536.00  0.232400E+01 0.244100E+03
     4561.00  0.217221E+01 0.237117E+03
     4586.00  0.202900E+01 0.230183E+03
     4611.00  0.189399E+01 0.223309E+03
     4636.00  0.176679E+01 0.216502E+03
     4661.00  0.164704E+01 0.209772E+03
     4686.00  0.153438E+01 0.203125E+03
     4711.00  0.142847E+01 0.196569E+03
     4736.00  0.132897E+01 0.190110E+03
     4761.00  0.123557E+01 0.183753E+03
     4786.00  0.114795E+01 0.177504E+03
     4811.00  0.106583E+01 0.171368E+03
     4836.00  0.988899E+00 0.165348E+03
     4861.00  0.916899E+00 0.159448E+03
     4886.00  0.849561E+00 0.153672E+03
     4911.00  0.786632E+00 0.148023E+03
     4936.00  0.727869E+00 0.142501E+03
     4961.00  0.673039E+00 0.137110E+03
     4986.00  0.621919E+00 0.131851E+03
     5011.00  0.574297E+00 0.126726E+03
     5036.00  0.529968E+00 0.121734E+03
     5061.00  0.488739E+00 0.116876E+03
     5086.00  0.450425E+00 0.112153E+03
     5111.00  0.414849E+00 0.107565E+03
     5136.00  0.381843E+00 0.103110E+03
     5161.00  0.351248E+00 0.987892E+02
     5186.00  0.322911E+00 0.946007E+02
     5211.00  0.296690E+00 0.905437E+02
     5236.00  0.272446E+00 0.866168E+02
     5261.00  0.250051E+00 0.828186E+02
     5286.00  0.229382E+00 0.791475E+02
     5311.00  0.210323E+00 0.756016E+02
     5336.00  0.192765E+00 0.721790E+02
     5361.00  0.176603E+00 0.688777E+02
     5386.00  0.161741E+00 0.656954E+02
     5411.00  0.148086E+00 0.626299E+02
     5436.00  0.135553E+00 0.596789E+02
     5461.00  0.124059E+00 0.568398E+02
     5511.00  0.103889E+00 0.514874E+02
     5561.00  0.870220E-01 0.465520E+02
     5611.00  0.729696E-01 0.420124E+02
     5661.00  0.613076E-01 0.378467E+02
     5711.00  0.516674E-01 0.340334E+02
     5761.00  0.437312E-01 0.305508E+02
     5811.00  0.372259E-01 0.273777E+02
     5861.00  0.319188E-01 0.244930E+02
     5911.00  0.276127E-01 0.218766E+02
     5961.00  0.241420E-01 0.195087E+02
     6011.00  0.213681E-01 0.173706E+02
     6061.00  0.191767E-01 0.154441E+02
     6111.00  0.174743E-01 0.137121E+02
     6161.00  0.161851E-01 0.121583E+02
     6211.00  0.152485E-01 0.107673E+02
     6261.00  0.146169E-01 0.952462E+01
     6311.00  0.142534E-01 0.841683E+01
     6361.00  0.141300E-01 0.743129E+01
     6411.00  0.142261E-01 0.655628E+01
     6461.00  0.145269E-01 0.578096E+01
     6511.00  0.150222E-01 0.509531E+01
     6561.00  0.157054E-01 0.449013E+01
     6611.00  0.165725E-01 0.395699E+01
     6661.00  0.176210E-01 0.348817E+01
     6711.00  0.188501E-01 0.307666E+01
     6761.00  0.202592E-01 0.271609E+01
     6811.00  0.218479E-01 0.240069E+01
     6861.00  0.236157E-01 0.212527E+01
     6911.00  0.255616E-01 0.188516E+01
     6961.00  0.276838E-01 0.167617E+01
     7011.00  0.299798E-01 0.149455E+01
     7061.00  0.324461E-01 0.133699E+01
     7111.00  0.350780E-01 0.120052E+01
     7161.00  0.378702E-01 0.108253E+01
     7211.00  0.408158E-01 0.980710E+00
     7261.00  0.439074E-01 0.893041E+00
     7311.00  0.471366E-01 0.817743E+00
     7361.00  0.504938E-01 0.753265E+00
     7411.00  0.539691E-01 0.698255E+00
     7511.00  0.612301E-01 0.612109E+00
     7611.00  0.688273E-01 0.551695E+00
     7711.00  0.766622E-01 0.511356E+00
     7811.00  0.846344E-01 0.486913E+00
     7911.00  0.926433E-01 0.475275E+00
     8011.00  0.100592E+00 0.474143E+00
     8111.00  0.108388E+00 0.481769E+00
     8211.00  0.115947E+00 0.496781E+00
     8311.00  0.123193E+00 0.518050E+00
     8411.00  0.130060E+00 0.544600E+00
     8511.00  0.136491E+00 0.575546E+00
     8611.00  0.142439E+00 0.610054E+00
     8711.00  0.147870E+00 0.647319E+00
     8811.00  0.152755E+00 0.686561E+00
     8911.00  0.157080E+00 0.727022E+00
     9011.00  0.160835E+00 0.767965E+00
     9111.00  0.164019E+00 0.808693E+00
     9211.00  0.166641E+00 0.848549E+00
     9311.00  0.168711E+00 0.886927E+00
     9411.00  0.170248E+00 0.923283E+00
     9511.00  0.171274E+00 0.957138E+00
     9611.00  0.171814E+00 0.988085E+00
     9711.00  0.171898E+00 0.101578E+01
     9811.00  0.171555E+00 0.103997E+01
     9911.00  0.170818E+00 0.106046E+01
    10011.00  0.169717E+00 0.107711E+01
    10111.00  0.168286E+00 0.108988E+01
    10211.00  0.166557E+00 0.109875E+01
    10311.00  0.164562E+00 0.110379E+01
    10411.00  0.162331E+00 0.110508E+01
    10511.00  0.159893E+00 0.110277E+01
    10611.00  0.157276E+00 0.109703E+01
    10711.00  0.154506E+00 0.108806E+01
    10811.00  0.151609E+00 0.107609E+01
    10911.00  0.148606E+00 0.106133E+01
    11011.00  0.145518E+00 0.104406E+01
    11111.00  0.142365E+00 0.102451E+01
    11211.00  0.139164E+00 0.100293E+01
    11311.00  0.135930E+00 0.979588E+00
    11411.00  0.132678E+00 0.954714E+00
    11511.00  0.129419E+00 0.928547E+00
    11611.00  0.126164E+00 0.901313E+00
    11711.00  0.122923E+00 0.873221E+00
    11811.00  0.119703E+00 0.844473E+00
    11911.00  0.116512E+00 0.815251E+00
    12011.00  0.113354E+00 0.785724E+00
    12111.00  0.110235E+00 0.756047E+00
    12211.00  0.107157E+00 0.726359E+00
    12311.00  0.104123E+00 0.696782E+00
    12411.00  0.101137E+00 0.667430E+00
    12511.00  0.981973E-01 0.638398E+00
    12611.00  0.953065E-01 0.609769E+00
    12711.00  0.924643E-01 0.581616E+00
    12811.00  0.896703E-01 0.553998E+00
    12911.00  0.869239E-01 0.526967E+00
    13011.00  0.842243E-01 0.500564E+00
    13111.00  0.815701E-01 0.474821E+00
    13211.00  0.789602E-01 0.449765E+00
    13311.00  0.763928E-01 0.425413E+00
    13411.00  0.738664E-01 0.401779E+00
    13511.00  0.713794E-01 0.378872E+00
    13611.00  0.689299E-01 0.356694E+00
    13711.00  0.665164E-01 0.335246E+00
    13811.00  0.641372E-01 0.314526E+00
    13911.00  0.617908E-01 0.294528E+00
    14011.00  0.594757E-01 0.275246E+00
    14111.00  0.571907E-01 0.256672E+00
    14211.00  0.549345E-01 0.238796E+00
    14311.00  0.527062E-01 0.221611E+00
    14411.00  0.505049E-01 0.205104E+00
    14511.00  0.483300E-01 0.189268E+00
    14611.00  0.461811E-01 0.174093E+00
    14711.00  0.440580E-01 0.159570E+00
    14811.00  0.419606E-01 0.145691E+00
    14911.00  0.398893E-01 0.132449E+00
    15011.00  0.378445E-01 0.119838E+00
    15111.00  0.358269E-01 0.107853E+00
    15211.00  0.338375E-01 0.964895E-01
    15311.00  0.318773E-01 0.857450E-01
    15411.00  0.299480E-01 0.756176E-01
    15511.00  0.280511E-01 0.661071E-01
    15611.00  0.261885E-01 0.572142E-01
    15711.00  0.243624E-01 0.489407E-01
    15811.00  0.225751E-01 0.412896E-01
    15911.00  0.208292E-01 0.342650E-01
    16011.00  0.191274E-01 0.278719E-01
    16111.00  0.174727E-01 0.221165E-01
    16211.00  0.158683E-01 0.170056E-01
    16311.00  0.143175E-01 0.125470E-01
    16411.00  0.128239E-01 0.874894E-02
    16511.00  0.113912E-01 0.562059E-02
    16611.00  0.100230E-01 0.317143E-02
    16711.00  0.872345E-02 0.141142E-02
    16811.00  0.749656E-02 0.350813E-03
    16911.00  0.634648E-02 0.406307E-07
    17011.00  0.527748E-02 0.369621E-03
    17111.00  0.429387E-02 0.147003E-02
    17211.00  0.340003E-02 0.331158E-02
    17311.00  0.260036E-02 0.590430E-02
    17411.00  0.189929E-02 0.925786E-02
    17511.00  0.130122E-02 0.133813E-01
    17611.00  0.810562E-03 0.182832E-01
    17711.00  0.431663E-03 0.239712E-01
    17811.00  0.168816E-03 0.304522E-01
    17911.00  0.262342E-04 0.377320E-01
    18011.00  0.803093E-05 0.458153E-01
    18111.00  0.118197E-03 0.547058E-01
    18211.00  0.360585E-03 0.644055E-01
    18311.00  0.738884E-03 0.749154E-01
    18411.00  0.125661E-02 0.862349E-01
    18511.00  0.191707E-02 0.983614E-01
    18611.00  0.272336E-02 0.111291E+00
    18711.00  0.367833E-02 0.125019E+00
    18811.00  0.478459E-02 0.139537E+00
    18911.00  0.604446E-02 0.154835E+00
    19011.00  0.745999E-02 0.170904E+00
    19111.00  0.903289E-02 0.187729E+00
    19311.00  0.126561E-01 0.223587E+00
    19511.00  0.169213E-01 0.262265E+00
    19711.00  0.218298E-01 0.303587E+00
    19911.00  0.273767E-01 0.347347E+00
    20111.00  0.335508E-01 0.393309E+00
    20311.00  0.403339E-01 0.441205E+00
    20511.00  0.477015E-01 0.490744E+00
    20711.00  0.556220E-01 0.541611E+00
    20911.00  0.640571E-01 0.593467E+00
    21111.00  0.729623E-01 0.645959E+00
    21311.00  0.822863E-01 0.698715E+00
    21511.00  0.919723E-01 0.751357E+00
    21711.00  0.101958E+00 0.803496E+00
    21911.00  0.112176E+00 0.854744E+00
    22111.00  0.122555E+00 0.904715E+00
    22311.00  0.133019E+00 0.953022E+00
    22511.00  0.143491E+00 0.999299E+00
    22711.00  0.153890E+00 0.104318E+01
    22911.00  0.164136E+00 0.108434E+01
    23111.00  0.174147E+00 0.112244E+01
    23311.00  0.183841E+00 0.115721E+01
    23511.00  0.193140E+00 0.118837E+01
    23711.00  0.201965E+00 0.121570E+01
    23911.00  0.210243E+00 0.123899E+01
    24111.00  0.217904E+00 0.125808E+01
    24311.00  0.224882E+00 0.127285E+01
    24511.00  0.231117E+00 0.128321E+01
    24711.00  0.236556E+00 0.128911E+01
    24911.00  0.241152E+00 0.129054E+01
    25111.00  0.244866E+00 0.128754E+01
    25311.00  0.247664E+00 0.128016E+01
    25511.00  0.249524E+00 0.126852E+01
    25711.00  0.250430E+00 0.125275E+01
    25911.00  0.250375E+00 0.123301E+01
    26111.00  0.249359E+00 0.120950E+01
    26311.00  0.247395E+00 0.118246E+01
    26511.00  0.244498E+00 0.115211E+01
    26711.00  0.240695E+00 0.111874E+01
    26911.00  0.236021E+00 0.108262E+01

