         21        21         7      1181C   C   D    0.822591500D+05
 E STATE HAS LABEL C   
 VIBRATIONAL LEVELS FOR STATE E IN 1/CM FOR J= 20
      -9118.47299     -7372.75279     -5754.88095     -4268.09269
     -2917.97526     -1713.79430      -670.24462
 PROPORTION OF STATE C   
  0.999999E+00 0.999997E+00 0.999995E+00 0.999995E+00 0.999994E+00
  0.999994E+00 0.999994E+00
 PROPORTION OF STATE D   
  0.120682E-05 0.319799E-05 0.454362E-05 0.538200E-05 0.584888E-05
  0.606176E-05 0.606741E-05
 TABLE FOR EMISSION PROBABILITIES   E(J= 20,IE) ==>F(J= 20,IF)
         IE==>      0            1            2            3
        1.00  0.000000E+00 0.000000E+00 0.000000E+00 0.000000E+00
        2.00  0.000000E+00 0.000000E+00 0.000000E+00 0.000000E+00
        3.00  0.000000E+00 0.000000E+00 0.000000E+00 0.000000E+00
        4.00  0.000000E+00 0.000000E+00 0.000000E+00 0.000000E+00
        5.00  0.000000E+00 0.000000E+00 0.000000E+00 0.000000E+00
        6.00  0.000000E+00 0.000000E+00 0.000000E+00 0.634608E-37
        7.00  0.000000E+00 0.000000E+00 0.371401E-37 0.147825E-35
        8.00  0.000000E+00 0.158879E-37 0.568667E-36 0.225649E-34
        9.00  0.000000E+00 0.175492E-36 0.630496E-35 0.249419E-33
       10.00  0.274646E-37 0.150268E-35 0.541909E-34 0.213720E-32
       11.00  0.191894E-36 0.104716E-34 0.379061E-33 0.149039E-31
       12.00  0.113105E-35 0.615596E-34 0.223678E-32 0.876778E-31
       13.00  0.577937E-35 0.313728E-33 0.114423E-31 0.447150E-30
       14.00  0.261492E-34 0.141576E-32 0.518302E-31 0.201928E-29
       15.00  0.106540E-33 0.575313E-32 0.211412E-30 0.821143E-29
       16.00  0.396215E-33 0.213392E-31 0.787109E-30 0.304790E-28
       17.00  0.135994E-32 0.730508E-31 0.270465E-29 0.104413E-27
       18.00  0.434776E-32 0.232931E-30 0.865654E-29 0.333168E-27
       19.00  0.130469E-31 0.697151E-30 0.260060E-28 0.997859E-27
       20.00  0.369889E-31 0.197127E-29 0.738110E-28 0.282355E-26
       21.00  0.996245E-31 0.529536E-29 0.199021E-27 0.759019E-26
       22.00  0.256134E-30 0.135785E-28 0.512251E-27 0.194767E-25
       23.00  0.631205E-30 0.333741E-28 0.126377E-26 0.479049E-25
       24.00  0.149639E-29 0.789109E-28 0.299932E-26 0.113348E-24
       25.00  0.342346E-29 0.180057E-27 0.686947E-26 0.258819E-24
       26.00  0.757961E-29 0.397599E-27 0.152259E-25 0.571923E-24
       27.00  0.162804E-28 0.851754E-27 0.327399E-25 0.122607E-23
       28.00  0.339999E-28 0.177410E-26 0.684490E-25 0.255556E-23
       29.00  0.691741E-28 0.359994E-26 0.139415E-24 0.518932E-23
       30.00  0.137351E-27 0.712910E-26 0.277122E-24 0.102839E-22
       31.00  0.266588E-27 0.138004E-25 0.538458E-24 0.199215E-22
       32.00  0.506518E-27 0.261514E-25 0.102418E-23 0.377775E-22
       33.00  0.943335E-27 0.485753E-25 0.190950E-23 0.702199E-22
       34.00  0.172414E-26 0.885464E-25 0.349380E-23 0.128092E-21
       35.00  0.309594E-26 0.158576E-24 0.628038E-23 0.229560E-21
       36.00  0.546708E-26 0.279284E-24 0.111024E-22 0.404590E-21
       37.00  0.950302E-26 0.484171E-24 0.193192E-22 0.701899E-21
       38.00  0.162734E-25 0.826914E-24 0.331186E-22 0.119962E-20
       39.00  0.274752E-25 0.139242E-23 0.559757E-22 0.202144E-20
       40.00  0.457682E-25 0.231332E-23 0.933441E-22 0.336075E-20
       42.00  0.122300E-24 0.614872E-23 0.249961E-21 0.894541E-20
       44.00  0.311986E-24 0.156020E-22 0.639002E-21 0.227306E-19
       46.00  0.762939E-24 0.379504E-22 0.156593E-20 0.553687E-19
       48.00  0.179497E-23 0.888101E-22 0.369192E-20 0.129756E-18
       50.00  0.407578E-23 0.200583E-21 0.840070E-20 0.293478E-18
       52.00  0.895706E-23 0.438453E-21 0.185001E-19 0.642425E-18
       54.00  0.190983E-22 0.929878E-21 0.395280E-19 0.136440E-17
       56.00  0.395967E-22 0.191761E-20 0.821230E-19 0.281769E-17
       58.00  0.799858E-22 0.385283E-20 0.166231E-18 0.566934E-17
       60.00  0.157698E-21 0.755542E-20 0.328408E-18 0.111334E-16
       62.00  0.303943E-21 0.144839E-19 0.634256E-18 0.213735E-16
       64.00  0.573508E-21 0.271828E-19 0.119920E-17 0.401700E-16
       66.00  0.106081E-20 0.500089E-19 0.222263E-17 0.740074E-16
       68.00  0.192576E-20 0.902956E-19 0.404301E-17 0.133818E-15
       70.00  0.343486E-20 0.160186E-18 0.722574E-17 0.237735E-15
       72.00  0.602548E-20 0.279484E-18 0.127008E-16 0.415380E-15
       74.00  0.104051E-19 0.480021E-18 0.219760E-16 0.714445E-15
       76.00  0.177029E-19 0.812269E-18 0.374631E-16 0.121068E-14
       78.00  0.296975E-19 0.135524E-17 0.629700E-16 0.202287E-14
       80.00  0.491570E-19 0.223110E-17 0.104436E-15 0.333498E-14
       82.00  0.803398E-19 0.362660E-17 0.171018E-15 0.542870E-14
       84.00  0.129725E-18 0.582407E-17 0.276682E-15 0.873063E-14
       86.00  0.207070E-18 0.924588E-17 0.442500E-15 0.138800E-13
       88.00  0.326918E-18 0.145177E-16 0.699957E-15 0.218254E-13
       90.00  0.510748E-18 0.225574E-16 0.109565E-14 0.339609E-13
       92.00  0.789991E-18 0.346997E-16 0.169792E-14 0.523167E-13
       94.00  0.121025E-17 0.528683E-16 0.260612E-14 0.798243E-13
       96.00  0.183712E-17 0.798132E-16 0.396352E-14 0.120681E-12
       98.00  0.276427E-17 0.119434E-15 0.597506E-14 0.180851E-12
      100.00  0.412435E-17 0.177220E-15 0.893168E-14 0.268740E-12
      102.00  0.610394E-17 0.260840E-15 0.132434E-13 0.396114E-12
      104.00  0.896359E-17 0.380934E-15 0.194840E-13 0.579326E-12
      106.00  0.130647E-16 0.552163E-15 0.284513E-13 0.840948E-12
      108.00  0.189055E-16 0.794606E-15 0.412468E-13 0.121194E-11
      110.00  0.271681E-16 0.113558E-14 0.593829E-13 0.173452E-11
      112.00  0.387818E-16 0.161205E-14 0.849228E-13 0.246586E-11
      114.00  0.550042E-16 0.227370E-14 0.120666E-12 0.348300E-11
      116.00  0.775285E-16 0.318701E-14 0.170387E-12 0.488918E-11
      118.00  0.108622E-15 0.444041E-14 0.239155E-12 0.682192E-11
      122.00  0.209586E-15 0.847266E-14 0.463108E-12 0.130548E-10
      126.00  0.395716E-15 0.158191E-13 0.877505E-12 0.244455E-10
      130.00  0.732114E-15 0.289403E-13 0.162921E-11 0.448530E-10
      134.00  0.132889E-14 0.519429E-13 0.296761E-11 0.807399E-10
      138.00  0.236920E-14 0.915674E-13 0.530921E-11 0.142751E-09
      142.00  0.415310E-14 0.158708E-12 0.933888E-11 0.248151E-09
      146.00  0.716493E-14 0.270713E-12 0.161665E-10 0.424533E-09
      150.00  0.121759E-13 0.454840E-12 0.275663E-10 0.715395E-09
      154.00  0.203983E-13 0.753346E-12 0.463370E-10 0.118842E-08
      158.00  0.337142E-13 0.123096E-11 0.768410E-10 0.194766E-08
      162.00  0.550119E-13 0.198564E-11 0.125797E-09 0.315114E-08
      166.00  0.886752E-13 0.316407E-11 0.203441E-09 0.503631E-08
      170.00  0.141288E-12 0.498349E-11 0.325200E-09 0.795616E-08
      174.00  0.222639E-12 0.776248E-11 0.514099E-09 0.124302E-07
      178.00  0.347149E-12 0.119638E-10 0.804171E-09 0.192157E-07
      182.00  0.535864E-12 0.182534E-10 0.124527E-08 0.294069E-07
      186.00  0.819244E-12 0.275819E-10 0.190979E-08 0.445707E-07
      190.00  0.124100E-11 0.412944E-10 0.290201E-08 0.669329E-07
      194.00  0.186340E-11 0.612792E-10 0.437094E-08 0.996302E-07
      198.00  0.277443E-11 0.901680E-10 0.652790E-08 0.147049E-06
      202.00  0.409755E-11 0.131601E-09 0.967039E-08 0.215282E-06
      206.00  0.600480E-11 0.190577E-09 0.142144E-07 0.312725E-06
      210.00  0.873432E-11 0.273919E-09 0.207375E-07 0.450880E-06
      214.00  0.126137E-10 0.390874E-09 0.300371E-07 0.645401E-06
      218.00  0.180906E-10 0.553904E-09 0.432064E-07 0.917455E-06
      222.00  0.257738E-10 0.779698E-09 0.617362E-07 0.129551E-05
      226.00  0.364857E-10 0.109048E-08 0.876478E-07 0.181761E-05
      230.00  0.513319E-10 0.151570E-08 0.123667E-06 0.253437E-05
      234.00  0.717906E-10 0.209413E-08 0.173448E-06 0.351270E-05
      238.00  0.998286E-10 0.287663E-08 0.241871E-06 0.484068E-05
      242.00  0.138050E-09 0.392948E-08 0.335413E-06 0.663362E-05
      246.00  0.189884E-09 0.533877E-08 0.462637E-06 0.904180E-05
      250.00  0.259832E-09 0.721570E-08 0.634808E-06 0.122602E-04
      254.00  0.353771E-09 0.970331E-08 0.866681E-06 0.165405E-04
      258.00  0.479344E-09 0.129848E-07 0.117750E-05 0.222066E-04
      262.00  0.646450E-09 0.172940E-07 0.159227E-05 0.296733E-04
      266.00  0.867862E-09 0.229276E-07 0.214334E-05 0.394695E-04
      270.00  0.115999E-08 0.302616E-07 0.287241E-05 0.522677E-04
      274.00  0.154386E-08 0.397696E-07 0.383301E-05 0.689189E-04
      282.00  0.270137E-08 0.678379E-07 0.674168E-05 0.118351E-03
      290.00  0.465367E-08 0.113904E-06 0.116734E-04 0.200072E-03
      298.00  0.790007E-08 0.188424E-06 0.199165E-04 0.333242E-03
      306.00  0.132265E-07 0.307337E-06 0.335100E-04 0.547333E-03
      314.00  0.218559E-07 0.494659E-06 0.556430E-04 0.887135E-03
      322.00  0.356706E-07 0.786163E-06 0.912496E-04 0.141998E-02
      330.00  0.575377E-07 0.123457E-05 0.147883E-03 0.224599E-02
      338.00  0.917818E-07 0.191678E-05 0.236993E-03 0.351260E-02
      346.00  0.144866E-06 0.294391E-05 0.375773E-03 0.543484E-02
      354.00  0.226366E-06 0.447504E-05 0.589820E-03 0.832357E-02
      362.00  0.350353E-06 0.673601E-05 0.916922E-03 0.126244E-01
      370.00  0.537345E-06 0.100447E-04 0.141243E-02 0.189711E-01
      378.00  0.817031E-06 0.148453E-04 0.215680E-02 0.282579E-01
      386.00  0.123208E-05 0.217534E-04 0.326615E-02 0.417373E-01
      394.00  0.184340E-05 0.316164E-04 0.490699E-02 0.611521E-01
      402.00  0.273739E-05 0.455931E-04 0.731648E-02 0.889113E-01
      410.00  0.403592E-05 0.652577E-04 0.108305E-01 0.128324E+00
      418.00  0.590983E-05 0.927359E-04 0.159218E-01 0.183910E+00
      426.00  0.859741E-05 0.130881E-03 0.232526E-01 0.261806E+00
      434.00  0.124293E-04 0.183499E-03 0.337450E-01 0.370299E+00
      442.00  0.178620E-04 0.255646E-03 0.486771E-01 0.520526E+00
      450.00  0.255232E-04 0.353997E-03 0.698126E-01 0.727381E+00
      458.00  0.362718E-04 0.487327E-03 0.995742E-01 0.101069E+01
      466.00  0.512787E-04 0.667116E-03 0.141276E+00 0.139675E+01
      474.00  0.721342E-04 0.908315E-03 0.199435E+00 0.192023E+01
      482.00  0.100989E-03 0.123031E-02 0.280181E+00 0.262677E+01
      490.00  0.140745E-03 0.165814E-02 0.391809E+00 0.357612E+01
      498.00  0.195299E-03 0.222402E-02 0.545502E+00 0.484630E+01
      506.00  0.269876E-03 0.296926E-02 0.756296E+00 0.653882E+01
      514.00  0.371460E-03 0.394660E-02 0.104435E+01 0.878540E+01
      522.00  0.509356E-03 0.522322E-02 0.143661E+01 0.117564E+02
      530.00  0.695940E-03 0.688438E-02 0.196902E+01 0.156717E+02
      538.00  0.947634E-03 0.903795E-02 0.268941E+01 0.208142E+02
      546.00  0.128618E-02 0.118201E-01 0.366129E+01 0.275470E+02
      554.00  0.174031E-02 0.154020E-01 0.496884E+01 0.363356E+02
      562.00  0.234797E-02 0.199989E-01 0.672344E+01 0.477753E+02
      570.00  0.315913E-02 0.258802E-01 0.907230E+01 0.626261E+02
      578.00  0.423960E-02 0.333827E-01 0.122097E+02 0.818570E+02
      586.00  0.567588E-02 0.429266E-01 0.163915E+02 0.106702E+03
      596.00  0.814796E-02 0.585359E-01 0.236112E+02 0.148082E+03
      606.00  0.116593E-01 0.794708E-01 0.338991E+02 0.204743E+03
      616.00  0.166355E-01 0.107447E+00 0.485256E+02 0.282115E+03
      626.00  0.236746E-01 0.144706E+00 0.692795E+02 0.387511E+03
      636.00  0.336165E-01 0.194178E+00 0.986806E+02 0.530779E+03
      646.00  0.476423E-01 0.259682E+00 0.140281E+03 0.725191E+03
      656.00  0.674142E-01 0.346196E+00 0.199092E+03 0.988646E+03
      666.00  0.952763E-01 0.460211E+00 0.282199E+03 0.134531E+04
      676.00  0.134542E+00 0.610191E+00 0.399639E+03 0.182791E+04
      686.00  0.189911E+00 0.807188E+00 0.565677E+03 0.248085E+04
      696.00  0.268068E+00 0.106566E+01 0.800658E+03 0.336463E+04
      706.00  0.378574E+00 0.140456E+01 0.113372E+04 0.456201E+04
      716.00  0.535168E+00 0.184883E+01 0.160685E+04 0.618683E+04
      726.00  0.757725E+00 0.243146E+01 0.228085E+04 0.839666E+04
      736.00  0.107521E+01 0.319626E+01 0.324455E+04 0.114113E+05
      746.00  0.153022E+01 0.420195E+01 0.462873E+04 0.155400E+05
      756.00  0.218602E+01 0.552783E+01 0.662805E+04 0.212230E+05
      766.00  0.313777E+01 0.728215E+01 0.953563E+04 0.290939E+05
      776.00  0.453058E+01 0.961471E+01 0.137992E+05 0.400793E+05
      786.00  0.658947E+01 0.127360E+02 0.201139E+05 0.555568E+05
      796.00  0.967037E+01 0.169479E+02 0.295809E+05 0.776181E+05
      806.00  0.143497E+02 0.226930E+02 0.439853E+05 0.109517E+06
      816.00  0.215875E+02 0.306403E+02 0.663044E+05 0.156467E+06
      826.00  0.330393E+02 0.418365E+02 0.101676E+06 0.227124E+06
      836.00  0.516820E+02 0.579935E+02 0.159351E+06 0.336501E+06
      846.00  0.831625E+02 0.820705E+02 0.256890E+06 0.512102E+06
      856.00  0.138948E+03 0.119560E+03 0.429983E+06 0.807966E+06
      860.00  0.172935E+03 0.140487E+03 0.535535E+06 0.982365E+06
      860.56  0.178399E+03 0.143754E+03 0.552510E+06 0.101010E+07
      861.11  0.184070E+03 0.147120E+03 0.570128E+06 0.103880E+07
      861.67  0.189957E+03 0.150588E+03 0.588420E+06 0.106852E+07
      862.22  0.196071E+03 0.154162E+03 0.607416E+06 0.109929E+07
      862.78  0.202421E+03 0.157847E+03 0.627149E+06 0.113117E+07
      863.33  0.209019E+03 0.161648E+03 0.647654E+06 0.116420E+07
      863.89  0.215876E+03 0.165568E+03 0.668967E+06 0.119844E+07
      864.44  0.223006E+03 0.169614E+03 0.691126E+06 0.123393E+07
      865.00  0.230420E+03 0.173790E+03 0.714173E+06 0.127075E+07
      865.56  0.238134E+03 0.178101E+03 0.738151E+06 0.130894E+07
      866.00  0.244530E+03 0.181652E+03 0.758034E+06 0.134053E+07
      866.11  0.246161E+03 0.182554E+03 0.763105E+06 0.134858E+07
      866.67  0.254517E+03 0.187155E+03 0.789084E+06 0.138973E+07
      867.22  0.263218E+03 0.191910E+03 0.816140E+06 0.143246E+07
      867.78  0.272283E+03 0.196826E+03 0.844325E+06 0.147686E+07
      868.33  0.281729E+03 0.201911E+03 0.873699E+06 0.152299E+07
      868.89  0.291576E+03 0.207171E+03 0.904322E+06 0.157096E+07
      869.44  0.301845E+03 0.212615E+03 0.936260E+06 0.162084E+07
      870.00  0.312558E+03 0.218252E+03 0.969582E+06 0.167274E+07
      870.56  0.323739E+03 0.224091E+03 0.100436E+07 0.172677E+07
      871.11  0.335412E+03 0.230141E+03 0.104068E+07 0.178302E+07
      871.67  0.347606E+03 0.236412E+03 0.107861E+07 0.184161E+07
      872.22  0.360347E+03 0.242915E+03 0.111825E+07 0.190267E+07
      872.78  0.373667E+03 0.249662E+03 0.115969E+07 0.196634E+07
      873.33  0.387598E+03 0.256665E+03 0.120304E+07 0.203274E+07
      873.89  0.402175E+03 0.263937E+03 0.124840E+07 0.210204E+07
      874.44  0.417435E+03 0.271492E+03 0.129589E+07 0.217439E+07
      875.00  0.433417E+03 0.279344E+03 0.134563E+07 0.224995E+07
      875.56  0.450163E+03 0.287509E+03 0.139775E+07 0.232893E+07
      876.00  0.464142E+03 0.294278E+03 0.144126E+07 0.239469E+07
      876.11  0.467720E+03 0.296004E+03 0.145240E+07 0.241150E+07
      876.67  0.486136E+03 0.304846E+03 0.150973E+07 0.249788E+07
      877.22  0.505464E+03 0.314056E+03 0.156990E+07 0.258830E+07
      877.78  0.525760E+03 0.323653E+03 0.163308E+07 0.268299E+07
      878.33  0.547084E+03 0.333659E+03 0.169948E+07 0.278222E+07
      878.89  0.569502E+03 0.344098E+03 0.176928E+07 0.288626E+07
      879.44  0.593083E+03 0.354995E+03 0.184271E+07 0.299541E+07
      880.00  0.617904E+03 0.366377E+03 0.192000E+07 0.311000E+07
      880.56  0.644047E+03 0.378274E+03 0.200142E+07 0.323037E+07
      881.11  0.671600E+03 0.390716E+03 0.208723E+07 0.335689E+07
      881.67  0.700659E+03 0.403737E+03 0.217774E+07 0.348998E+07
      882.22  0.731327E+03 0.417375E+03 0.227327E+07 0.363008E+07
      882.78  0.763717E+03 0.431669E+03 0.237417E+07 0.377766E+07
      883.33  0.797952E+03 0.446660E+03 0.248082E+07 0.393323E+07
      883.89  0.834164E+03 0.462396E+03 0.259363E+07 0.409736E+07
      884.44  0.872499E+03 0.478927E+03 0.271307E+07 0.427066E+07
      885.00  0.913114E+03 0.496307E+03 0.283962E+07 0.445379E+07
      885.56  0.956181E+03 0.514595E+03 0.297382E+07 0.464747E+07
      886.00  0.992528E+03 0.529923E+03 0.308708E+07 0.481055E+07
      886.11  0.100189E+04 0.533856E+03 0.311626E+07 0.485251E+07
      886.67  0.105045E+04 0.554161E+03 0.326758E+07 0.506976E+07
      887.22  0.110208E+04 0.575585E+03 0.342850E+07 0.530017E+07
      887.78  0.115703E+04 0.598215E+03 0.359978E+07 0.554478E+07
      888.33  0.121558E+04 0.622141E+03 0.378228E+07 0.580474E+07
      888.89  0.127804E+04 0.647465E+03 0.397695E+07 0.608131E+07
      889.44  0.134472E+04 0.674300E+03 0.418483E+07 0.637588E+07
      890.00  0.141601E+04 0.702767E+03 0.440707E+07 0.668997E+07
      890.56  0.149230E+04 0.733002E+03 0.464494E+07 0.702529E+07
      891.11  0.157407E+04 0.765156E+03 0.489987E+07 0.738374E+07
      891.67  0.166180E+04 0.799395E+03 0.517344E+07 0.776739E+07
      892.22  0.175608E+04 0.835905E+03 0.546741E+07 0.817860E+07
      892.78  0.185752E+04 0.874892E+03 0.578375E+07 0.861998E+07
      893.33  0.196683E+04 0.916586E+03 0.612467E+07 0.909444E+07
      893.89  0.208483E+04 0.961245E+03 0.649265E+07 0.960527E+07
      894.44  0.221238E+04 0.100916E+04 0.689051E+07 0.101562E+08
      895.00  0.235053E+04 0.106065E+04 0.732139E+07 0.107513E+08
      895.56  0.250040E+04 0.111610E+04 0.778889E+07 0.113954E+08
      896.00  0.262961E+04 0.116357E+04 0.819197E+07 0.119494E+08
      896.11  0.266330E+04 0.117591E+04 0.829708E+07 0.120937E+08
      896.67  0.284073E+04 0.124055E+04 0.885060E+07 0.128525E+08
      897.22  0.303439E+04 0.131058E+04 0.945477E+07 0.136787E+08
      897.78  0.324623E+04 0.138660E+04 0.101157E+08 0.145802E+08
      898.33  0.347850E+04 0.146933E+04 0.108404E+08 0.155664E+08
      898.89  0.373381E+04 0.155958E+04 0.116371E+08 0.166477E+08
      899.44  0.401520E+04 0.165829E+04 0.125152E+08 0.178366E+08
      900.00  0.432619E+04 0.176658E+04 0.134857E+08 0.191475E+08
      900.56  0.467094E+04 0.188571E+04 0.145616E+08 0.205972E+08
      901.11  0.505433E+04 0.201721E+04 0.157581E+08 0.222057E+08
      901.67  0.548215E+04 0.216286E+04 0.170934E+08 0.239963E+08
      902.22  0.596131E+04 0.232476E+04 0.185891E+08 0.259971E+08
      902.78  0.650009E+04 0.250545E+04 0.202709E+08 0.282415E+08
      903.33  0.710849E+04 0.270797E+04 0.221701E+08 0.307702E+08
      903.89  0.779864E+04 0.293600E+04 0.243246E+08 0.336320E+08
      904.44  0.858545E+04 0.319404E+04 0.267810E+08 0.368871E+08
      905.00  0.948731E+04 0.348763E+04 0.295967E+08 0.406096E+08
      905.56  0.105272E+05 0.382365E+04 0.328434E+08 0.448920E+08
      906.00  0.114776E+05 0.412873E+04 0.358109E+08 0.487980E+08
      906.11  0.117339E+05 0.421072E+04 0.366113E+08 0.498504E+08
      906.67  0.131443E+05 0.465979E+04 0.410153E+08 0.556325E+08
      907.22  0.148057E+05 0.518493E+04 0.462035E+08 0.624286E+08
      907.78  0.167800E+05 0.580440E+04 0.523691E+08 0.704867E+08
      908.33  0.191492E+05 0.654237E+04 0.597682E+08 0.801351E+08
      908.89  0.220238E+05 0.743123E+04 0.687459E+08 0.918156E+08
      909.44  0.255552E+05 0.851530E+04 0.797757E+08 0.106134E+09
      910.00  0.299560E+05 0.985648E+04 0.935215E+08 0.123939E+09
      910.56  0.355313E+05 0.115433E+05 0.110936E+09 0.146446E+09
      911.11  0.427317E+05 0.137063E+05 0.133429E+09 0.175452E+09
      911.67  0.522451E+05 0.165435E+05 0.163148E+09 0.213694E+09
      912.22  0.651629E+05 0.203685E+05 0.203504E+09 0.265512E+09
      912.78  0.833011E+05 0.257009E+05 0.260170E+09 0.338116E+09
      913.33  0.109861E+06 0.334537E+05 0.343151E+09 0.444209E+09
      913.89  0.150917E+06 0.453530E+05 0.471430E+09 0.607866E+09
      914.44  0.219163E+06 0.649925E+05 0.684670E+09 0.879346E+09
      915.00  0.344869E+06 0.100911E+06 0.107747E+10 0.137837E+10
      915.10  0.378528E+06 0.110493E+06 0.118264E+10 0.151185E+10
      915.12  0.385505E+06 0.112477E+06 0.120445E+10 0.153951E+10
      915.14  0.392674E+06 0.114516E+06 0.122685E+10 0.156793E+10
      915.16  0.400042E+06 0.116611E+06 0.124987E+10 0.159713E+10
      915.18  0.407616E+06 0.118764E+06 0.127354E+10 0.162716E+10
      915.20  0.415404E+06 0.120977E+06 0.129788E+10 0.165803E+10
      915.21  0.423415E+06 0.123253E+06 0.132291E+10 0.168977E+10
      915.23  0.431656E+06 0.125594E+06 0.134866E+10 0.172243E+10
      915.25  0.440137E+06 0.128002E+06 0.137516E+10 0.175604E+10
      915.27  0.448867E+06 0.130481E+06 0.140244E+10 0.179063E+10
      915.29  0.457855E+06 0.133032E+06 0.143053E+10 0.182624E+10
      915.31  0.467113E+06 0.135659E+06 0.145946E+10 0.186292E+10
      915.33  0.476650E+06 0.138365E+06 0.148926E+10 0.190071E+10
      915.35  0.486479E+06 0.141152E+06 0.151997E+10 0.193964E+10
      915.37  0.496610E+06 0.144025E+06 0.155163E+10 0.197977E+10
      915.39  0.507058E+06 0.146987E+06 0.158428E+10 0.202115E+10
      915.41  0.517834E+06 0.150041E+06 0.161795E+10 0.206383E+10
      915.42  0.528953E+06 0.153192E+06 0.165270E+10 0.210786E+10
      915.44  0.540429E+06 0.156443E+06 0.168856E+10 0.215331E+10
      915.46  0.552278E+06 0.159799E+06 0.172559E+10 0.220023E+10
      915.48  0.564516E+06 0.163264E+06 0.176383E+10 0.224868E+10
      915.50  0.577161E+06 0.166844E+06 0.180334E+10 0.229875E+10
      915.52  0.590230E+06 0.170542E+06 0.184418E+10 0.235048E+10
      915.54  0.603742E+06 0.174366E+06 0.188641E+10 0.240397E+10
      915.56  0.617718E+06 0.178319E+06 0.193008E+10 0.245929E+10
      915.58  0.632178E+06 0.182409E+06 0.197527E+10 0.251653E+10
      915.60  0.647147E+06 0.186641E+06 0.202205E+10 0.257577E+10
      915.62  0.662647E+06 0.191023E+06 0.207048E+10 0.263711E+10
      915.63  0.678705E+06 0.195561E+06 0.212066E+10 0.270066E+10
      915.65  0.695346E+06 0.200263E+06 0.217266E+10 0.276650E+10
      915.67  0.712599E+06 0.205136E+06 0.222658E+10 0.283477E+10
      915.69  0.730496E+06 0.210190E+06 0.228251E+10 0.290558E+10
      915.71  0.749067E+06 0.215434E+06 0.234054E+10 0.297905E+10
      915.73  0.768348E+06 0.220876E+06 0.240079E+10 0.305532E+10
      915.75  0.788375E+06 0.226528E+06 0.246337E+10 0.313454E+10
      915.77  0.809186E+06 0.232399E+06 0.252841E+10 0.321685E+10
      915.79  0.830823E+06 0.238502E+06 0.259602E+10 0.330243E+10
      915.81  0.853329E+06 0.244849E+06 0.266636E+10 0.339144E+10
      915.83  0.876753E+06 0.251453E+06 0.273956E+10 0.348407E+10
      915.84  0.901145E+06 0.258328E+06 0.281578E+10 0.358052E+10
      915.86  0.926558E+06 0.265489E+06 0.289519E+10 0.368100E+10
      915.88  0.953049E+06 0.272953E+06 0.297798E+10 0.378574E+10
      915.90  0.980682E+06 0.280736E+06 0.306433E+10 0.389498E+10
      915.92  0.100952E+07 0.288857E+06 0.315445E+10 0.400898E+10
      915.94  0.103964E+07 0.297335E+06 0.324857E+10 0.412803E+10
      915.96  0.107111E+07 0.306193E+06 0.334692E+10 0.425242E+10
      915.98  0.110402E+07 0.315453E+06 0.344975E+10 0.438248E+10
      916.00  0.113845E+07 0.325139E+06 0.355735E+10 0.451856E+10
      916.00  0.114310E+07 0.326447E+06 0.357188E+10 0.453693E+10
      916.02  0.117450E+07 0.335279E+06 0.367002E+10 0.466103E+10
      916.04  0.121228E+07 0.345901E+06 0.378806E+10 0.481030E+10
      916.05  0.125188E+07 0.357036E+06 0.391184E+10 0.496681E+10
      916.07  0.129345E+07 0.368718E+06 0.404173E+10 0.513102E+10
      916.09  0.133710E+07 0.380982E+06 0.417813E+10 0.530346E+10
      916.11  0.138297E+07 0.393869E+06 0.432149E+10 0.548468E+10
      916.13  0.143122E+07 0.407420E+06 0.447228E+10 0.567529E+10
      916.15  0.148202E+07 0.421684E+06 0.463103E+10 0.587594E+10
      916.17  0.153555E+07 0.436709E+06 0.479830E+10 0.608735E+10
      916.19  0.159200E+07 0.452552E+06 0.497472E+10 0.631029E+10
      916.21  0.165159E+07 0.469273E+06 0.516095E+10 0.654563E+10
      916.23  0.171456E+07 0.486937E+06 0.535774E+10 0.679429E+10
      916.25  0.178117E+07 0.505617E+06 0.556590E+10 0.705730E+10
      916.26  0.185170E+07 0.525393E+06 0.578632E+10 0.733578E+10
      916.28  0.192647E+07 0.546350E+06 0.601997E+10 0.763095E+10
      916.30  0.200581E+07 0.568586E+06 0.626793E+10 0.794418E+10
      916.32  0.209012E+07 0.592206E+06 0.653138E+10 0.827697E+10
      916.34  0.217980E+07 0.617327E+06 0.681165E+10 0.863096E+10
      916.36  0.227533E+07 0.644079E+06 0.711019E+10 0.900800E+10
      916.38  0.237722E+07 0.672605E+06 0.742861E+10 0.941013E+10
      916.40  0.248605E+07 0.703067E+06 0.776870E+10 0.983960E+10
      916.42  0.260245E+07 0.735641E+06 0.813248E+10 0.102989E+11
      916.44  0.272715E+07 0.770528E+06 0.852218E+10 0.107910E+11
      916.46  0.286095E+07 0.807951E+06 0.894031E+10 0.113189E+11
      916.47  0.300474E+07 0.848162E+06 0.938969E+10 0.118862E+11
      916.49  0.315955E+07 0.891442E+06 0.987349E+10 0.124969E+11
      916.51  0.332653E+07 0.938112E+06 0.103953E+11 0.131556E+11
      916.53  0.350697E+07 0.988534E+06 0.109592E+11 0.138673E+11
      916.55  0.370235E+07 0.104312E+07 0.115698E+11 0.146380E+11
      916.57  0.391437E+07 0.110233E+07 0.122324E+11 0.154741E+11
      916.59  0.414494E+07 0.116672E+07 0.129530E+11 0.163834E+11
      916.61  0.439629E+07 0.123688E+07 0.137385E+11 0.173746E+11
      916.63  0.467097E+07 0.131355E+07 0.145969E+11 0.184577E+11
      916.65  0.497193E+07 0.139752E+07 0.155375E+11 0.196443E+11
      916.67  0.530262E+07 0.148977E+07 0.165709E+11 0.209481E+11
      916.68  0.566704E+07 0.159141E+07 0.177098E+11 0.223848E+11
      916.70  0.606991E+07 0.170374E+07 0.189688E+11 0.239729E+11
      916.72  0.651677E+07 0.182830E+07 0.203653E+11 0.257343E+11
      916.74  0.701420E+07 0.196693E+07 0.219199E+11 0.276949E+11
      916.76  0.757004E+07 0.212180E+07 0.236570E+11 0.298856E+11
      916.78  0.819371E+07 0.229553E+07 0.256061E+11 0.323434E+11
      916.80  0.889655E+07 0.249126E+07 0.278027E+11 0.351131E+11
      916.82  0.969237E+07 0.271283E+07 0.302898E+11 0.382489E+11
      916.84  0.105981E+08 0.296492E+07 0.331202E+11 0.418174E+11
      916.86  0.116345E+08 0.325333E+07 0.363592E+11 0.459006E+11
      916.88  0.128275E+08 0.358525E+07 0.400878E+11 0.506007E+11
      916.89  0.142098E+08 0.396972E+07 0.444077E+11 0.560458E+11
      916.91  0.158225E+08 0.441818E+07 0.494479E+11 0.623985E+11
      916.93  0.177186E+08 0.494530E+07 0.553737E+11 0.698667E+11
      916.95  0.199665E+08 0.557006E+07 0.623989E+11 0.787198E+11
      916.97  0.226558E+08 0.631729E+07 0.708035E+11 0.893105E+11
      916.99  0.259052E+08 0.721994E+07 0.809587E+11 0.102106E+12
      917.01  0.298742E+08 0.832219E+07 0.933629E+11 0.117734E+12
      917.03  0.347794E+08 0.968408E+07 0.108693E+12 0.137048E+12
      917.05  0.409189E+08 0.113882E+08 0.127880E+12 0.161218E+12
      917.07  0.487064E+08 0.135491E+08 0.152218E+12 0.191875E+12
      917.09  0.587202E+08 0.163270E+08 0.183514E+12 0.231293E+12
      917.11  0.717653E+08 0.199448E+08 0.224284E+12 0.282638E+12
      917.12  0.889369E+08 0.247053E+08 0.277950E+12 0.350219E+12
      917.14  0.111628E+09 0.309940E+08 0.348868E+12 0.439515E+12
      917.16  0.141303E+09 0.392148E+08 0.441611E+12 0.556280E+12
      917.18  0.178587E+09 0.495385E+08 0.558136E+12 0.702965E+12
      917.20  0.220975E+09 0.612673E+08 0.690610E+12 0.869695E+12
      917.22  0.259454E+09 0.719020E+08 0.810872E+12 0.102100E+13
      917.24  0.278897E+09 0.772535E+08 0.871638E+12 0.109737E+13
      917.26  0.268898E+09 0.744485E+08 0.840391E+12 0.105788E+13
      917.28  0.235086E+09 0.650562E+08 0.734719E+12 0.924736E+12
      917.30  0.192687E+09 0.532977E+08 0.602211E+12 0.757855E+12
      917.32  0.153224E+09 0.423620E+08 0.478876E+12 0.602561E+12
      917.33  0.121018E+09 0.334421E+08 0.378223E+12 0.475846E+12
      917.35  0.961555E+08 0.265590E+08 0.300520E+12 0.378036E+12
      917.37  0.773055E+08 0.213423E+08 0.241608E+12 0.303886E+12
      917.39  0.630105E+08 0.173875E+08 0.196931E+12 0.247659E+12
      917.41  0.520740E+08 0.143628E+08 0.162751E+12 0.204646E+12
      917.43  0.436025E+08 0.120205E+08 0.136275E+12 0.171331E+12
      917.45  0.369509E+08 0.101820E+08 0.115486E+12 0.145175E+12
      917.47  0.316572E+08 0.871910E+07 0.989416E+11 0.124360E+12
      917.49  0.273894E+08 0.754007E+07 0.856033E+11 0.107580E+12
      917.51  0.239070E+08 0.657828E+07 0.747197E+11 0.938897E+11
      917.53  0.210338E+08 0.578493E+07 0.657398E+11 0.825946E+11
      917.54  0.186388E+08 0.512379E+07 0.582545E+11 0.731801E+11
      917.56  0.166236E+08 0.456764E+07 0.519563E+11 0.652593E+11
      917.58  0.149135E+08 0.409580E+07 0.466114E+11 0.585379E+11
      917.60  0.134507E+08 0.369231E+07 0.420398E+11 0.527892E+11
      917.62  0.121905E+08 0.334479E+07 0.381012E+11 0.478370E+11
      917.64  0.110976E+08 0.304347E+07 0.346855E+11 0.435426E+11
      917.66  0.101440E+08 0.278063E+07 0.317051E+11 0.397956E+11
      917.68  0.930724E+07 0.255004E+07 0.290898E+11 0.365080E+11
      917.70  0.856914E+07 0.234669E+07 0.267830E+11 0.336083E+11
      917.72  0.791493E+07 0.216650E+07 0.247383E+11 0.310383E+11
      917.74  0.733245E+07 0.200610E+07 0.229178E+11 0.287502E+11
      917.75  0.681167E+07 0.186273E+07 0.212902E+11 0.267047E+11
      917.77  0.634423E+07 0.173408E+07 0.198292E+11 0.248688E+11
      917.79  0.592314E+07 0.161821E+07 0.185131E+11 0.232150E+11
      917.81  0.554249E+07 0.151349E+07 0.173234E+11 0.217202E+11
      917.83  0.519730E+07 0.141855E+07 0.162445E+11 0.203647E+11
      917.85  0.488331E+07 0.133222E+07 0.152632E+11 0.191318E+11
      917.87  0.459689E+07 0.125348E+07 0.143680E+11 0.180073E+11
      917.89  0.433493E+07 0.118148E+07 0.135492E+11 0.169788E+11
      917.91  0.409471E+07 0.111548E+07 0.127985E+11 0.160358E+11
      917.93  0.387392E+07 0.105483E+07 0.121084E+11 0.151691E+11
      917.95  0.367051E+07 0.998962E+06 0.114727E+11 0.143706E+11
      917.96  0.348272E+07 0.947399E+06 0.108857E+11 0.136336E+11
      917.98  0.330899E+07 0.899709E+06 0.103427E+11 0.129517E+11
      918.00  0.314795E+07 0.855513E+06 0.983939E+10 0.123198E+11
      918.02  0.299840E+07 0.814481E+06 0.937199E+10 0.117329E+11
      918.04  0.285928E+07 0.776318E+06 0.893716E+10 0.111870E+11
      918.06  0.272963E+07 0.740764E+06 0.853196E+10 0.106783E+11
      918.08  0.260863E+07 0.707587E+06 0.815377E+10 0.102036E+11
      918.10  0.249552E+07 0.676581E+06 0.780023E+10 0.975985E+10
      918.12  0.238962E+07 0.647561E+06 0.746926E+10 0.934444E+10
      918.14  0.229035E+07 0.620361E+06 0.715897E+10 0.895503E+10
      918.16  0.219715E+07 0.594832E+06 0.686768E+10 0.858948E+10
      918.17  0.210955E+07 0.570841E+06 0.659388E+10 0.824590E+10
      918.19  0.202710E+07 0.548268E+06 0.633618E+10 0.792255E+10
      918.21  0.194941E+07 0.527002E+06 0.609336E+10 0.761789E+10
      918.23  0.187612E+07 0.506945E+06 0.586429E+10 0.733049E+10
      918.25  0.180690E+07 0.488008E+06 0.564795E+10 0.705910E+10
      918.27  0.174146E+07 0.470108E+06 0.544342E+10 0.680252E+10
      918.29  0.167953E+07 0.453172E+06 0.524984E+10 0.655972E+10
      918.31  0.162086E+07 0.437132E+06 0.506647E+10 0.632972E+10
      918.33  0.156522E+07 0.421925E+06 0.489258E+10 0.611164E+10
      918.35  0.151242E+07 0.407495E+06 0.472754E+10 0.590467E+10
      918.37  0.146226E+07 0.393791E+06 0.457076E+10 0.570806E+10
      918.38  0.141457E+07 0.380763E+06 0.442169E+10 0.552114E+10
      918.40  0.136918E+07 0.368370E+06 0.427984E+10 0.534328E+10
      918.42  0.132596E+07 0.356570E+06 0.414474E+10 0.517391E+10
      918.44  0.128476E+07 0.345326E+06 0.401598E+10 0.501249E+10
      918.46  0.124547E+07 0.334603E+06 0.389317E+10 0.485853E+10
      918.48  0.120797E+07 0.324371E+06 0.377594E+10 0.471159E+10
      918.50  0.117214E+07 0.314599E+06 0.366397E+10 0.457124E+10
      918.52  0.113789E+07 0.305261E+06 0.355693E+10 0.443709E+10
      918.54  0.110514E+07 0.296330E+06 0.345455E+10 0.430878E+10
      918.56  0.107379E+07 0.287785E+06 0.335656E+10 0.418598E+10
      918.58  0.104376E+07 0.279603E+06 0.326271E+10 0.406838E+10
      918.59  0.101499E+07 0.271764E+06 0.317277E+10 0.395569E+10
      918.61  0.987393E+06 0.264248E+06 0.308652E+10 0.384763E+10
      918.63  0.960919E+06 0.257039E+06 0.300378E+10 0.374396E+10
      918.65  0.935504E+06 0.250120E+06 0.292434E+10 0.364445E+10
      918.67  0.911092E+06 0.243476E+06 0.284804E+10 0.354887E+10
      918.69  0.887631E+06 0.237092E+06 0.277471E+10 0.345702E+10
      918.71  0.865073E+06 0.230955E+06 0.270420E+10 0.336871E+10
      918.73  0.843370E+06 0.225052E+06 0.263636E+10 0.328375E+10
      918.75  0.822482E+06 0.219372E+06 0.257107E+10 0.320199E+10
      918.77  0.802366E+06 0.213903E+06 0.250820E+10 0.312326E+10
      918.79  0.782987E+06 0.208636E+06 0.244762E+10 0.304741E+10
      918.80  0.764307E+06 0.203560E+06 0.238924E+10 0.297431E+10
      918.82  0.746294E+06 0.198667E+06 0.233294E+10 0.290382E+10
      918.84  0.728916E+06 0.193947E+06 0.227862E+10 0.283582E+10
      918.86  0.712144E+06 0.189393E+06 0.222620E+10 0.277019E+10
      918.88  0.695950E+06 0.184996E+06 0.217558E+10 0.270684E+10
      918.90  0.680308E+06 0.180751E+06 0.212668E+10 0.264564E+10
      919.00  0.606476E+06 0.160726E+06 0.189591E+10 0.235685E+10
      919.41  0.400831E+06 0.105113E+06 0.125312E+10 0.155313E+10
      919.83  0.285185E+06 0.739985E+05 0.891626E+09 0.110179E+10
      920.24  0.213689E+06 0.548598E+05 0.668137E+09 0.823151E+09
      920.66  0.166382E+06 0.422599E+05 0.520254E+09 0.639037E+09
      921.07  0.133438E+06 0.335294E+05 0.417266E+09 0.510997E+09
      921.48  0.109562E+06 0.272336E+05 0.342624E+09 0.418327E+09
      921.90  0.916941E+05 0.225457E+05 0.286766E+09 0.349073E+09
      922.31  0.779673E+05 0.189620E+05 0.243851E+09 0.295939E+09
      922.73  0.671878E+05 0.161616E+05 0.210149E+09 0.254269E+09
      923.14  0.585638E+05 0.139322E+05 0.183186E+09 0.220975E+09
      923.56  0.515531E+05 0.121288E+05 0.161266E+09 0.193945E+09
      923.97  0.457744E+05 0.106495E+05 0.143198E+09 0.171693E+09
      924.38  0.409529E+05 0.942122E+04 0.128122E+09 0.153152E+09
      924.80  0.368868E+05 0.839038E+04 0.115408E+09 0.137534E+09
      925.21  0.334247E+05 0.751692E+04 0.104583E+09 0.124254E+09
      925.63  0.304516E+05 0.677043E+04 0.952857E+08 0.112863E+09
      926.00  0.281142E+05 0.618622E+04 0.879764E+08 0.103919E+09
      926.04  0.278788E+05 0.612751E+04 0.872401E+08 0.103018E+09
      926.45  0.256367E+05 0.556991E+04 0.802287E+08 0.944490E+08
      926.87  0.236703E+05 0.508321E+04 0.740795E+08 0.869430E+08
      927.28  0.219359E+05 0.465593E+04 0.686553E+08 0.803300E+08
      927.70  0.203978E+05 0.427880E+04 0.638451E+08 0.744725E+08
      928.11  0.190271E+05 0.394430E+04 0.595584E+08 0.692587E+08
      928.53  0.178002E+05 0.364626E+04 0.557211E+08 0.645969E+08
      928.94  0.166972E+05 0.337960E+04 0.522715E+08 0.604111E+08
      929.35  0.157019E+05 0.314006E+04 0.491585E+08 0.566380E+08
      929.77  0.148005E+05 0.292412E+04 0.463391E+08 0.532245E+08
      930.18  0.139813E+05 0.272878E+04 0.437768E+08 0.501259E+08
      930.60  0.132346E+05 0.255152E+04 0.414410E+08 0.473042E+08
      931.01  0.125518E+05 0.239018E+04 0.393053E+08 0.447270E+08
      931.42  0.119257E+05 0.224292E+04 0.373470E+08 0.423665E+08
      931.84  0.113502E+05 0.210816E+04 0.355468E+08 0.401988E+08
      932.25  0.108199E+05 0.198453E+04 0.338878E+08 0.382032E+08
      932.67  0.103300E+05 0.187085E+04 0.323554E+08 0.363617E+08
      933.08  0.987653E+04 0.176607E+04 0.309368E+08 0.346587E+08
      933.49  0.945585E+04 0.166930E+04 0.296208E+08 0.330804E+08
      933.91  0.906483E+04 0.157975E+04 0.283975E+08 0.316148E+08
      934.32  0.870069E+04 0.149673E+04 0.272583E+08 0.302513E+08
      934.74  0.836098E+04 0.141961E+04 0.261955E+08 0.289804E+08
      935.15  0.804353E+04 0.134786E+04 0.252024E+08 0.277938E+08
      935.57  0.774639E+04 0.128099E+04 0.242727E+08 0.266841E+08
      935.98  0.746783E+04 0.121857E+04 0.234012E+08 0.256448E+08
      936.00  0.745469E+04 0.121563E+04 0.233601E+08 0.255958E+08
      936.39  0.720631E+04 0.116021E+04 0.225830E+08 0.246698E+08
      936.81  0.696044E+04 0.110559E+04 0.218137E+08 0.237539E+08
      937.22  0.672896E+04 0.105438E+04 0.210895E+08 0.228924E+08
      937.64  0.651076E+04 0.100631E+04 0.204068E+08 0.220809E+08
      938.05  0.630481E+04 0.961133E+03 0.197624E+08 0.213156E+08
      938.46  0.611020E+04 0.918620E+03 0.191535E+08 0.205930E+08
      938.88  0.592610E+04 0.878570E+03 0.185774E+08 0.199098E+08
      939.29  0.575174E+04 0.840798E+03 0.180318E+08 0.192634E+08
      939.71  0.558643E+04 0.805134E+03 0.175146E+08 0.186509E+08
      940.12  0.542955E+04 0.771428E+03 0.170237E+08 0.180700E+08
      940.54  0.528052E+04 0.739540E+03 0.165573E+08 0.175186E+08
      940.95  0.513882E+04 0.709343E+03 0.161139E+08 0.169946E+08
      941.36  0.500396E+04 0.680721E+03 0.156919E+08 0.164962E+08
      941.78  0.487550E+04 0.653568E+03 0.152899E+08 0.160217E+08
      942.19  0.475303E+04 0.627785E+03 0.149067E+08 0.155697E+08
      942.61  0.463618E+04 0.603284E+03 0.145410E+08 0.151386E+08
      943.02  0.452460E+04 0.579982E+03 0.141918E+08 0.147272E+08
      943.43  0.441798E+04 0.557804E+03 0.138582E+08 0.143343E+08
      943.85  0.431601E+04 0.536678E+03 0.135391E+08 0.139587E+08
      944.26  0.421843E+04 0.516542E+03 0.132337E+08 0.135995E+08
      944.68  0.412499E+04 0.497334E+03 0.129413E+08 0.132556E+08
      945.09  0.403544E+04 0.478999E+03 0.126610E+08 0.129262E+08
      945.51  0.394957E+04 0.461487E+03 0.123923E+08 0.126105E+08
      945.92  0.386718E+04 0.444750E+03 0.121344E+08 0.123077E+08
      946.00  0.385149E+04 0.441570E+03 0.120853E+08 0.122500E+08
      946.33  0.378808E+04 0.428743E+03 0.118869E+08 0.120170E+08
      946.75  0.371209E+04 0.413425E+03 0.116491E+08 0.117379E+08
      947.16  0.363905E+04 0.398759E+03 0.114205E+08 0.114697E+08
      947.58  0.356880E+04 0.384709E+03 0.112006E+08 0.112119E+08
      947.99  0.350121E+04 0.371241E+03 0.109891E+08 0.109638E+08
      948.40  0.343613E+04 0.358324E+03 0.107854E+08 0.107251E+08
      948.82  0.337345E+04 0.345930E+03 0.105892E+08 0.104951E+08
      949.23  0.331304E+04 0.334031E+03 0.104002E+08 0.102736E+08
      949.65  0.325480E+04 0.322603E+03 0.102179E+08 0.100600E+08
      950.06  0.319861E+04 0.311621E+03 0.100421E+08 0.985396E+07
      950.47  0.314439E+04 0.301062E+03 0.987236E+07 0.965517E+07
      950.89  0.309204E+04 0.290907E+03 0.970852E+07 0.946326E+07
      951.30  0.304147E+04 0.281136E+03 0.955027E+07 0.927790E+07
      951.72  0.299261E+04 0.271729E+03 0.939734E+07 0.909879E+07
      952.13  0.294538E+04 0.262671E+03 0.924952E+07 0.892564E+07
      952.55  0.289970E+04 0.253944E+03 0.910656E+07 0.875818E+07
      952.96  0.285551E+04 0.245533E+03 0.896825E+07 0.859616E+07
      953.37  0.281274E+04 0.237424E+03 0.883440E+07 0.843934E+07
      953.79  0.277133E+04 0.229603E+03 0.870481E+07 0.828750E+07
      954.20  0.273123E+04 0.222057E+03 0.857930E+07 0.814041E+07
      954.62  0.269237E+04 0.214774E+03 0.845770E+07 0.799787E+07
      955.03  0.265472E+04 0.207742E+03 0.833985E+07 0.785970E+07
      955.44  0.261821E+04 0.200951E+03 0.822560E+07 0.772571E+07
      955.86  0.258281E+04 0.194391E+03 0.811479E+07 0.759572E+07
      956.00  0.257096E+04 0.192202E+03 0.807772E+07 0.755223E+07
      956.27  0.254846E+04 0.188051E+03 0.800730E+07 0.746959E+07
      956.69  0.251513E+04 0.181923E+03 0.790300E+07 0.734714E+07
      957.10  0.248278E+04 0.175997E+03 0.780175E+07 0.722823E+07
      957.52  0.245136E+04 0.170266E+03 0.770344E+07 0.711272E+07
      957.93  0.242085E+04 0.164721E+03 0.760796E+07 0.700049E+07
      958.34  0.239121E+04 0.159356E+03 0.751520E+07 0.689140E+07
      958.76  0.236241E+04 0.154163E+03 0.742506E+07 0.678532E+07
      959.17  0.233441E+04 0.149135E+03 0.733744E+07 0.668216E+07
      959.59  0.230719E+04 0.144266E+03 0.725226E+07 0.658180E+07
      960.00  0.228071E+04 0.139549E+03 0.716941E+07 0.648413E+07
      966.00  0.196677E+04 0.853185E+02 0.618715E+07 0.531863E+07
      976.00  0.163727E+04 0.335593E+02 0.515679E+07 0.406167E+07
      986.00  0.144351E+04 0.880141E+01 0.455180E+07 0.327250E+07
      996.00  0.132654E+04 0.224991E+00 0.418759E+07 0.273671E+07
     1006.00  0.125772E+04 0.340355E+01 0.397459E+07 0.235040E+07
     1016.00  0.122186E+04 0.167407E+02 0.386520E+07 0.205784E+07
     1026.00  0.121033E+04 0.401237E+02 0.383247E+07 0.182672E+07
     1036.00  0.121809E+04 0.743708E+02 0.386064E+07 0.163713E+07
     1046.00  0.124216E+04 0.121005E+03 0.394041E+07 0.147615E+07
     1056.00  0.128082E+04 0.182177E+03 0.406648E+07 0.133509E+07
     1066.00  0.133322E+04 0.260672E+03 0.423623E+07 0.120785E+07
     1076.00  0.139910E+04 0.359962E+03 0.444892E+07 0.109011E+07
     1086.00  0.147865E+04 0.484300E+03 0.470523E+07 0.978748E+06
     1096.00  0.157243E+04 0.638842E+03 0.500702E+07 0.871534E+06
     1106.00  0.168133E+04 0.829806E+03 0.535715E+07 0.766953E+06
     1116.00  0.180652E+04 0.106466E+04 0.575941E+07 0.664099E+06
     1126.00  0.194946E+04 0.135234E+04 0.621851E+07 0.562645E+06
     1136.00  0.211190E+04 0.170354E+04 0.674008E+07 0.462852E+06
     1146.00  0.229589E+04 0.213101E+04 0.733068E+07 0.365631E+06
     1156.00  0.250381E+04 0.264994E+04 0.799793E+07 0.272630E+06
     1166.00  0.273837E+04 0.327841E+04 0.875050E+07 0.186372E+06
     1176.00  0.300263E+04 0.403784E+04 0.959824E+07 0.110429E+06
     1186.00  0.330009E+04 0.495362E+04 0.105523E+08 0.496458E+05
     1196.00  0.363463E+04 0.605575E+04 0.116250E+08 0.104088E+05
     1206.00  0.401059E+04 0.737955E+04 0.128303E+08 0.981642E+03
     1216.00  0.443277E+04 0.896647E+04 0.141835E+08 0.318968E+05
     1226.00  0.490642E+04 0.108650E+05 0.157012E+08 0.116415E+06
     1236.00  0.543726E+04 0.131314E+05 0.174018E+08 0.271057E+06
     1246.00  0.603143E+04 0.158308E+05 0.193046E+08 0.516190E+06
     1256.00  0.669538E+04 0.190380E+05 0.214302E+08 0.876681E+06
     1266.00  0.743580E+04 0.228376E+05 0.237997E+08 0.138257E+07
     1276.00  0.825937E+04 0.273250E+05 0.264343E+08 0.206972E+07
     1286.00  0.917251E+04 0.326053E+05 0.293541E+08 0.298043E+07
     1296.00  0.101810E+05 0.387929E+05 0.325773E+08 0.416378E+07
     1306.00  0.112895E+05 0.460088E+05 0.361182E+08 0.567583E+07
     1316.00  0.125009E+05 0.543774E+05 0.399855E+08 0.757916E+07
     1326.00  0.138156E+05 0.640208E+05 0.441799E+08 0.994190E+07
     1336.00  0.152307E+05 0.750515E+05 0.486913E+08 0.128358E+08
     1346.00  0.167391E+05 0.875631E+05 0.534962E+08 0.163333E+08
     1356.00  0.183286E+05 0.101619E+06 0.585552E+08 0.205033E+08
     1366.00  0.199816E+05 0.117240E+06 0.638107E+08 0.254059E+08
     1376.00  0.216744E+05 0.134393E+06 0.691868E+08 0.310867E+08
     1386.00  0.233780E+05 0.152979E+06 0.745893E+08 0.375697E+08
     1396.00  0.250582E+05 0.172829E+06 0.799095E+08 0.448520E+08
     1406.00  0.266781E+05 0.193705E+06 0.850287E+08 0.528993E+08
     1416.00  0.281996E+05 0.215302E+06 0.898256E+08 0.616442E+08
     1426.00  0.295865E+05 0.237270E+06 0.941847E+08 0.709874E+08
     1436.00  0.308068E+05 0.259233E+06 0.980046E+08 0.808034E+08
     1446.00  0.318353E+05 0.280814E+06 0.101206E+09 0.909476E+08
     1456.00  0.326554E+05 0.301661E+06 0.103737E+09 0.101268E+09
     1466.00  0.332593E+05 0.321473E+06 0.105574E+09 0.111613E+09
     1476.00  0.336488E+05 0.340011E+06 0.106723E+09 0.121845E+09
     1486.00  0.338332E+05 0.357112E+06 0.107217E+09 0.131845E+09
     1496.00  0.338285E+05 0.372684E+06 0.107107E+09 0.141517E+09
     1506.00  0.336548E+05 0.386702E+06 0.106459E+09 0.150793E+09
     1516.00  0.333350E+05 0.399199E+06 0.105346E+09 0.159627E+09
     1526.00  0.328927E+05 0.410249E+06 0.103845E+09 0.167998E+09
     1536.00  0.323509E+05 0.419961E+06 0.102028E+09 0.175902E+09
     1546.00  0.317312E+05 0.428457E+06 0.999663E+08 0.183350E+09
     1556.00  0.310530E+05 0.435873E+06 0.977209E+08 0.190364E+09
     1566.00  0.303332E+05 0.442340E+06 0.953462E+08 0.196973E+09
     1576.00  0.295864E+05 0.447989E+06 0.928880E+08 0.203208E+09
     1586.00  0.288244E+05 0.452938E+06 0.903846E+08 0.209103E+09
     1596.00  0.280569E+05 0.457296E+06 0.878668E+08 0.214692E+09
     1606.00  0.272918E+05 0.461159E+06 0.853591E+08 0.220008E+09
     1616.00  0.265349E+05 0.464612E+06 0.828805E+08 0.225081E+09
     1626.00  0.257910E+05 0.467727E+06 0.804454E+08 0.229937E+09
     1636.00  0.250632E+05 0.470566E+06 0.780644E+08 0.234602E+09
     1646.00  0.243540E+05 0.473181E+06 0.757447E+08 0.239097E+09
     1656.00  0.236650E+05 0.475616E+06 0.734913E+08 0.243441E+09
     1666.00  0.229970E+05 0.477905E+06 0.713070E+08 0.247650E+09
     1676.00  0.223506E+05 0.480077E+06 0.691930E+08 0.251738E+09
     1686.00  0.217257E+05 0.482156E+06 0.671495E+08 0.255716E+09
     1696.00  0.211221E+05 0.484159E+06 0.651757E+08 0.259594E+09
     1706.00  0.205395E+05 0.486101E+06 0.632700E+08 0.263379E+09
     1716.00  0.199772E+05 0.487992E+06 0.614307E+08 0.267077E+09
     1726.00  0.194345E+05 0.489840E+06 0.596555E+08 0.270694E+09
     1736.00  0.189108E+05 0.491651E+06 0.579419E+08 0.274234E+09
     1746.00  0.184051E+05 0.493429E+06 0.562875E+08 0.277698E+09
     1756.00  0.179169E+05 0.495175E+06 0.546896E+08 0.281089E+09
     1766.00  0.174451E+05 0.496889E+06 0.531457E+08 0.284408E+09
     1776.00  0.169890E+05 0.498573E+06 0.516532E+08 0.287655E+09
     1786.00  0.165479E+05 0.500224E+06 0.502097E+08 0.290831E+09
     1796.00  0.161211E+05 0.501840E+06 0.488128E+08 0.293935E+09
     1806.00  0.157077E+05 0.503420E+06 0.474602E+08 0.296967E+09
     1816.00  0.153073E+05 0.504961E+06 0.461499E+08 0.299925E+09
     1826.00  0.149190E+05 0.506460E+06 0.448798E+08 0.302809E+09
     1836.00  0.145423E+05 0.507915E+06 0.436480E+08 0.305618E+09
     1846.00  0.141768E+05 0.509322E+06 0.424527E+08 0.308351E+09
     1856.00  0.138217E+05 0.510679E+06 0.412922E+08 0.311005E+09
     1866.00  0.134766E+05 0.511982E+06 0.401650E+08 0.313579E+09
     1876.00  0.131412E+05 0.513229E+06 0.390695E+08 0.316073E+09
     1886.00  0.128148E+05 0.514415E+06 0.380043E+08 0.318484E+09
     1896.00  0.124972E+05 0.515540E+06 0.369682E+08 0.320811E+09
     1906.00  0.121879E+05 0.516599E+06 0.359600E+08 0.323053E+09
     1916.00  0.118866E+05 0.517590E+06 0.349786E+08 0.325209E+09
     1926.00  0.115929E+05 0.518512E+06 0.340229E+08 0.327277E+09
     1936.00  0.113066E+05 0.519362E+06 0.330919E+08 0.329256E+09
     1946.00  0.110274E+05 0.520138E+06 0.321847E+08 0.331146E+09
     1956.00  0.107550E+05 0.520837E+06 0.313005E+08 0.332945E+09
     1966.00  0.104891E+05 0.521459E+06 0.304384E+08 0.334653E+09
     1976.00  0.102295E+05 0.522001E+06 0.295978E+08 0.336268E+09
     1986.00  0.997603E+04 0.522462E+06 0.287779E+08 0.337790E+09
     1996.00  0.972844E+04 0.522841E+06 0.279780E+08 0.339219E+09
     2006.00  0.948655E+04 0.523137E+06 0.271976E+08 0.340554E+09
     2016.00  0.925018E+04 0.523349E+06 0.264360E+08 0.341794E+09
     2026.00  0.901917E+04 0.523477E+06 0.256928E+08 0.342941E+09
     2036.00  0.879336E+04 0.523519E+06 0.249674E+08 0.343993E+09
     2046.00  0.857260E+04 0.523476E+06 0.242593E+08 0.344950E+09
     2056.00  0.835674E+04 0.523347E+06 0.235682E+08 0.345814E+09
     2066.00  0.814567E+04 0.523132E+06 0.228934E+08 0.346584E+09
     2076.00  0.793925E+04 0.522831E+06 0.222348E+08 0.347260E+09
     2086.00  0.773737E+04 0.522445E+06 0.215918E+08 0.347843E+09
     2096.00  0.753991E+04 0.521973E+06 0.209640E+08 0.348334E+09
     2106.00  0.734678E+04 0.521416E+06 0.203512E+08 0.348733E+09
     2116.00  0.715786E+04 0.520775E+06 0.197530E+08 0.349040E+09
     2126.00  0.697307E+04 0.520050E+06 0.191691E+08 0.349258E+09
     2136.00  0.679231E+04 0.519242E+06 0.185991E+08 0.349386E+09
     2146.00  0.661550E+04 0.518352E+06 0.180428E+08 0.349426E+09
     2156.00  0.644254E+04 0.517381E+06 0.174998E+08 0.349378E+09
     2166.00  0.627337E+04 0.516329E+06 0.169700E+08 0.349244E+09
     2176.00  0.610789E+04 0.515198E+06 0.164530E+08 0.349025E+09
     2186.00  0.594604E+04 0.513989E+06 0.159485E+08 0.348722E+09
     2196.00  0.578774E+04 0.512702E+06 0.154563E+08 0.348337E+09
     2206.00  0.563292E+04 0.511339E+06 0.149762E+08 0.347869E+09
     2216.00  0.548151E+04 0.509901E+06 0.145079E+08 0.347322E+09
     2226.00  0.533344E+04 0.508390E+06 0.140511E+08 0.346696E+09
     2236.00  0.518866E+04 0.506806E+06 0.136057E+08 0.345993E+09
     2246.00  0.504709E+04 0.505152E+06 0.131715E+08 0.345214E+09
     2256.00  0.490868E+04 0.503429E+06 0.127481E+08 0.344360E+09
     2266.00  0.477337E+04 0.501637E+06 0.123355E+08 0.343434E+09
     2276.00  0.464109E+04 0.499778E+06 0.119333E+08 0.342436E+09
     2286.00  0.451179E+04 0.497854E+06 0.115413E+08 0.341368E+09
     2296.00  0.438542E+04 0.495867E+06 0.111595E+08 0.340232E+09
     2306.00  0.426192E+04 0.493817E+06 0.107875E+08 0.339028E+09
     2316.00  0.414124E+04 0.491706E+06 0.104252E+08 0.337760E+09
     2326.00  0.402332E+04 0.489536E+06 0.100724E+08 0.336429E+09
     2336.00  0.390811E+04 0.487308E+06 0.972886E+07 0.335035E+09
     2346.00  0.379557E+04 0.485024E+06 0.939446E+07 0.333581E+09
     2356.00  0.368564E+04 0.482686E+06 0.906899E+07 0.332068E+09
     2366.00  0.357828E+04 0.480295E+06 0.875228E+07 0.330499E+09
     2376.00  0.347343E+04 0.477852E+06 0.844415E+07 0.328874E+09
     2386.00  0.337106E+04 0.475359E+06 0.814442E+07 0.327195E+09
     2396.00  0.327111E+04 0.472818E+06 0.785292E+07 0.325465E+09
     2406.00  0.317355E+04 0.470230E+06 0.756949E+07 0.323683E+09
     2416.00  0.307831E+04 0.467597E+06 0.729396E+07 0.321853E+09
     2426.00  0.298537E+04 0.464920E+06 0.702617E+07 0.319976E+09
     2436.00  0.289467E+04 0.462201E+06 0.676595E+07 0.318053E+09
     2446.00  0.280618E+04 0.459442E+06 0.651316E+07 0.316086E+09
     2456.00  0.271986E+04 0.456643E+06 0.626762E+07 0.314077E+09
     2466.00  0.263566E+04 0.453807E+06 0.602920E+07 0.312026E+09
     2476.00  0.255353E+04 0.450934E+06 0.579773E+07 0.309937E+09
     2486.00  0.247345E+04 0.448027E+06 0.557307E+07 0.307810E+09
     2496.00  0.239537E+04 0.445086E+06 0.535507E+07 0.305646E+09
     2506.00  0.231925E+04 0.442114E+06 0.514359E+07 0.303448E+09
     2516.00  0.224505E+04 0.439110E+06 0.493847E+07 0.301217E+09
     2526.00  0.217274E+04 0.436078E+06 0.473959E+07 0.298953E+09
     2536.00  0.210228E+04 0.433018E+06 0.454679E+07 0.296659E+09
     2546.00  0.203363E+04 0.429931E+06 0.435996E+07 0.294336E+09
     2556.00  0.196675E+04 0.426819E+06 0.417894E+07 0.291986E+09
     2566.00  0.190162E+04 0.423683E+06 0.400361E+07 0.289609E+09
     2576.00  0.183819E+04 0.420524E+06 0.383385E+07 0.287208E+09
     2586.00  0.177642E+04 0.417345E+06 0.366951E+07 0.284783E+09
     2596.00  0.171630E+04 0.414145E+06 0.351048E+07 0.282336E+09
     2606.00  0.165777E+04 0.410926E+06 0.335663E+07 0.279869E+09
     2616.00  0.160082E+04 0.407689E+06 0.320784E+07 0.277381E+09
     2626.00  0.154540E+04 0.404436E+06 0.306399E+07 0.274876E+09
     2636.00  0.149149E+04 0.401168E+06 0.292496E+07 0.272353E+09
     2646.00  0.143905E+04 0.397885E+06 0.279063E+07 0.269814E+09
     2656.00  0.138805E+04 0.394589E+06 0.266090E+07 0.267261E+09
     2666.00  0.133846E+04 0.391281E+06 0.253564E+07 0.264694E+09
     2676.00  0.129026E+04 0.387962E+06 0.241476E+07 0.262115E+09
     2686.00  0.124341E+04 0.384633E+06 0.229814E+07 0.259525E+09
     2696.00  0.119788E+04 0.381296E+06 0.218568E+07 0.256925E+09
     2706.00  0.115365E+04 0.377951E+06 0.207726E+07 0.254316E+09
     2716.00  0.111069E+04 0.374599E+06 0.197280E+07 0.251699E+09
     2726.00  0.106896E+04 0.371242E+06 0.187218E+07 0.249076E+09
     2736.00  0.102845E+04 0.367880E+06 0.177532E+07 0.246446E+09
     2746.00  0.989118E+03 0.364514E+06 0.168210E+07 0.243812E+09
     2756.00  0.950949E+03 0.361145E+06 0.159245E+07 0.241174E+09
     2766.00  0.913914E+03 0.357774E+06 0.150625E+07 0.238533E+09
     2776.00  0.877987E+03 0.354402E+06 0.142343E+07 0.235890E+09
     2786.00  0.843142E+03 0.351030E+06 0.134389E+07 0.233246E+09
     2796.00  0.809357E+03 0.347659E+06 0.126755E+07 0.230602E+09
     2806.00  0.776605E+03 0.344289E+06 0.119431E+07 0.227959E+09
     2816.00  0.744865E+03 0.340921E+06 0.112409E+07 0.225318E+09
     2826.00  0.714112E+03 0.337557E+06 0.105681E+07 0.222679E+09
     2836.00  0.684323E+03 0.334196E+06 0.992386E+06 0.220043E+09
     2846.00  0.655477E+03 0.330840E+06 0.930740E+06 0.217411E+09
     2856.00  0.627550E+03 0.327489E+06 0.871791E+06 0.214784E+09
     2866.00  0.600522E+03 0.324144E+06 0.815464E+06 0.212163E+09
     2876.00  0.574370E+03 0.320806E+06 0.761682E+06 0.209547E+09
     2886.00  0.549074E+03 0.317475E+06 0.710372E+06 0.206939E+09
     2896.00  0.524614E+03 0.314152E+06 0.661461E+06 0.204338E+09
     2906.00  0.500968E+03 0.310838E+06 0.614879E+06 0.201745E+09
     2916.00  0.478119E+03 0.307533E+06 0.570556E+06 0.199161E+09
     2926.00  0.456045E+03 0.304238E+06 0.528425E+06 0.196587E+09
     2936.00  0.434728E+03 0.300953E+06 0.488419E+06 0.194023E+09
     2946.00  0.414149E+03 0.297680E+06 0.450472E+06 0.191469E+09
     2956.00  0.394290E+03 0.294418E+06 0.414522E+06 0.188926E+09
     2966.00  0.375133E+03 0.291168E+06 0.380506E+06 0.186396E+09
     2976.00  0.356661E+03 0.287930E+06 0.348364E+06 0.183877E+09
     2986.00  0.338855E+03 0.284706E+06 0.318034E+06 0.181372E+09
     2996.00  0.321699E+03 0.281496E+06 0.289461E+06 0.178879E+09
     3006.00  0.305175E+03 0.278299E+06 0.262585E+06 0.176401E+09
     3016.00  0.289269E+03 0.275117E+06 0.237353E+06 0.173936E+09
     3026.00  0.273964E+03 0.271950E+06 0.213708E+06 0.171486E+09
     3036.00  0.259243E+03 0.268798E+06 0.191600E+06 0.169052E+09
     3046.00  0.245092E+03 0.265663E+06 0.170974E+06 0.166632E+09
     3056.00  0.231496E+03 0.262543E+06 0.151781E+06 0.164229E+09
     3066.00  0.218439E+03 0.259440E+06 0.133972E+06 0.161841E+09
     3076.00  0.205908E+03 0.256354E+06 0.117497E+06 0.159471E+09
     3086.00  0.193888E+03 0.253286E+06 0.102309E+06 0.157117E+09
     3096.00  0.182364E+03 0.250235E+06 0.883633E+05 0.154780E+09
     3106.00  0.171325E+03 0.247203E+06 0.756136E+05 0.152461E+09
     3116.00  0.160755E+03 0.244188E+06 0.640164E+05 0.150160E+09
     3126.00  0.150642E+03 0.241193E+06 0.535289E+05 0.147877E+09
     3136.00  0.140973E+03 0.238216E+06 0.441092E+05 0.145612E+09
     3146.00  0.131736E+03 0.235259E+06 0.357166E+05 0.143366E+09
     3156.00  0.122918E+03 0.232321E+06 0.283114E+05 0.141139E+09
     3166.00  0.114507E+03 0.229403E+06 0.218549E+05 0.138931E+09
     3176.00  0.106492E+03 0.226505E+06 0.163094E+05 0.136742E+09
     3186.00  0.988610E+02 0.223627E+06 0.116380E+05 0.134573E+09
     3196.00  0.916023E+02 0.220769E+06 0.780490E+04 0.132423E+09
     3206.00  0.847052E+02 0.217933E+06 0.477527E+04 0.130293E+09
     3216.00  0.781589E+02 0.215117E+06 0.251510E+04 0.128184E+09
     3226.00  0.719527E+02 0.212322E+06 0.991318E+03 0.126094E+09
     3236.00  0.660764E+02 0.209549E+06 0.171713E+03 0.124025E+09
     3246.00  0.605199E+02 0.206796E+06 0.249554E+02 0.121976E+09
     3256.00  0.552732E+02 0.204066E+06 0.520559E+03 0.119948E+09
     3266.00  0.503267E+02 0.201357E+06 0.162887E+04 0.117940E+09
     3276.00  0.456708E+02 0.198670E+06 0.332105E+04 0.115954E+09
     3286.00  0.412965E+02 0.196005E+06 0.556906E+04 0.113988E+09
     3296.00  0.371946E+02 0.193362E+06 0.834565E+04 0.112043E+09
     3306.00  0.333563E+02 0.190741E+06 0.116243E+05 0.110118E+09
     3316.00  0.297730E+02 0.188142E+06 0.153794E+05 0.108215E+09
     3326.00  0.264362E+02 0.185566E+06 0.195859E+05 0.106333E+09
     3336.00  0.233378E+02 0.183012E+06 0.242194E+05 0.104473E+09
     3346.00  0.204696E+02 0.180481E+06 0.292566E+05 0.102633E+09
     3356.00  0.178238E+02 0.177972E+06 0.346744E+05 0.100814E+09
     3366.00  0.153928E+02 0.175487E+06 0.404508E+05 0.990172E+08
     3376.00  0.131691E+02 0.173023E+06 0.465643E+05 0.972411E+08
     3386.00  0.111453E+02 0.170583E+06 0.529939E+05 0.954863E+08
     3396.00  0.931425E+01 0.168165E+06 0.597195E+05 0.937526E+08
     3406.00  0.766908E+01 0.165771E+06 0.667215E+05 0.920401E+08
     3416.00  0.620296E+01 0.163399E+06 0.739809E+05 0.903487E+08
     3426.00  0.490924E+01 0.161050E+06 0.814793E+05 0.886785E+08
     3436.00  0.378146E+01 0.158724E+06 0.891990E+05 0.870293E+08
     3446.00  0.281332E+01 0.156421E+06 0.971228E+05 0.854012E+08
     3456.00  0.199865E+01 0.154140E+06 0.105234E+06 0.837941E+08
     3466.00  0.133147E+01 0.151883E+06 0.113517E+06 0.822080E+08
     3476.00  0.805921E+00 0.149649E+06 0.121955E+06 0.806427E+08
     3486.00  0.416306E+00 0.147437E+06 0.130534E+06 0.790982E+08
     3496.00  0.157071E+00 0.145248E+06 0.139239E+06 0.775745E+08
     3506.00  0.228044E-01 0.143082E+06 0.148057E+06 0.760714E+08
     3516.00  0.823483E-02 0.140939E+06 0.156973E+06 0.745888E+08
     3526.00  0.108228E+00 0.138819E+06 0.165975E+06 0.731268E+08
     3536.00  0.317786E+00 0.136721E+06 0.175050E+06 0.716851E+08
     3546.00  0.632039E+00 0.134646E+06 0.184186E+06 0.702637E+08
     3556.00  0.104625E+01 0.132593E+06 0.193371E+06 0.688625E+08
     3566.00  0.155581E+01 0.130563E+06 0.202594E+06 0.674814E+08
     3576.00  0.215623E+01 0.128555E+06 0.211845E+06 0.661201E+08
     3586.00  0.284314E+01 0.126570E+06 0.221112E+06 0.647788E+08
     3596.00  0.361231E+01 0.124607E+06 0.230386E+06 0.634571E+08
     3606.00  0.445959E+01 0.122666E+06 0.239658E+06 0.621551E+08
     3616.00  0.538099E+01 0.120748E+06 0.248917E+06 0.608725E+08
     3626.00  0.637260E+01 0.118851E+06 0.258156E+06 0.596092E+08
     3636.00  0.743062E+01 0.116976E+06 0.267366E+06 0.583652E+08
     3646.00  0.855138E+01 0.115123E+06 0.276538E+06 0.571402E+08
     3656.00  0.973130E+01 0.113292E+06 0.285665E+06 0.559341E+08
     3666.00  0.109669E+02 0.111483E+06 0.294739E+06 0.547468E+08
     3676.00  0.122548E+02 0.109695E+06 0.303754E+06 0.535781E+08
     3686.00  0.135918E+02 0.107928E+06 0.312703E+06 0.524279E+08
     3696.00  0.149746E+02 0.106183E+06 0.321578E+06 0.512960E+08
     3706.00  0.164002E+02 0.104459E+06 0.330375E+06 0.501823E+08
     3716.00  0.178656E+02 0.102756E+06 0.339086E+06 0.490866E+08
     3726.00  0.193679E+02 0.101074E+06 0.347707E+06 0.480087E+08
     3736.00  0.209043E+02 0.994124E+05 0.356232E+06 0.469486E+08
     3746.00  0.224721E+02 0.977719E+05 0.364657E+06 0.459060E+08
     3756.00  0.240686E+02 0.961519E+05 0.372976E+06 0.448808E+08
     3766.00  0.256913E+02 0.945525E+05 0.381185E+06 0.438728E+08
     3776.00  0.273377E+02 0.929733E+05 0.389280E+06 0.428819E+08
     3786.00  0.290055E+02 0.914144E+05 0.397256E+06 0.419079E+08
     3796.00  0.306923E+02 0.898755E+05 0.405111E+06 0.409506E+08
     3806.00  0.323959E+02 0.883565E+05 0.412840E+06 0.400098E+08
     3816.00  0.341141E+02 0.868574E+05 0.420440E+06 0.390854E+08
     3826.00  0.358449E+02 0.853778E+05 0.427908E+06 0.381772E+08
     3836.00  0.375862E+02 0.839177E+05 0.435242E+06 0.372850E+08
     3846.00  0.393361E+02 0.824770E+05 0.442438E+06 0.364087E+08
     3856.00  0.410927E+02 0.810555E+05 0.449494E+06 0.355481E+08
     3866.00  0.428542E+02 0.796530E+05 0.456408E+06 0.347030E+08
     3876.00  0.446188E+02 0.782695E+05 0.463177E+06 0.338732E+08
     3886.00  0.463850E+02 0.769047E+05 0.469801E+06 0.330586E+08
     3896.00  0.481510E+02 0.755586E+05 0.476276E+06 0.322590E+08
     3906.00  0.499153E+02 0.742309E+05 0.482602E+06 0.314742E+08
     3916.00  0.516764E+02 0.729215E+05 0.488777E+06 0.307040E+08
     3926.00  0.534329E+02 0.716303E+05 0.494800E+06 0.299483E+08
     3936.00  0.551833E+02 0.703570E+05 0.500669E+06 0.292069E+08
     3946.00  0.569264E+02 0.691016E+05 0.506385E+06 0.284796E+08
     3956.00  0.586609E+02 0.678639E+05 0.511945E+06 0.277662E+08
     3966.00  0.603855E+02 0.666437E+05 0.517349E+06 0.270665E+08
     3976.00  0.620991E+02 0.654409E+05 0.522598E+06 0.263805E+08
     3986.00  0.638005E+02 0.642552E+05 0.527689E+06 0.257078E+08
     3996.00  0.654887E+02 0.630867E+05 0.532623E+06 0.250484E+08
     4006.00  0.671627E+02 0.619350E+05 0.537400E+06 0.244020E+08
     4016.00  0.688214E+02 0.608000E+05 0.542020E+06 0.237685E+08
     4026.00  0.704639E+02 0.596816E+05 0.546483E+06 0.231477E+08
     4036.00  0.720894E+02 0.585796E+05 0.550788E+06 0.225394E+08
     4046.00  0.736969E+02 0.574939E+05 0.554937E+06 0.219435E+08
     4056.00  0.752858E+02 0.564243E+05 0.558930E+06 0.213598E+08
     4066.00  0.768551E+02 0.553705E+05 0.562766E+06 0.207881E+08
     4076.00  0.784042E+02 0.543326E+05 0.566447E+06 0.202282E+08
     4086.00  0.799324E+02 0.533102E+05 0.569973E+06 0.196800E+08
     4096.00  0.814391E+02 0.523033E+05 0.573345E+06 0.191433E+08
     4106.00  0.829235E+02 0.513117E+05 0.576564E+06 0.186179E+08
     4116.00  0.843852E+02 0.503352E+05 0.579630E+06 0.181037E+08
     4126.00  0.858235E+02 0.493737E+05 0.582544E+06 0.176005E+08
     4136.00  0.872381E+02 0.484270E+05 0.585309E+06 0.171082E+08
     4146.00  0.886283E+02 0.474949E+05 0.587923E+06 0.166265E+08
     4156.00  0.899937E+02 0.465772E+05 0.590389E+06 0.161553E+08
     4166.00  0.913339E+02 0.456740E+05 0.592708E+06 0.156945E+08
     4176.00  0.926486E+02 0.447848E+05 0.594881E+06 0.152439E+08
     4186.00  0.939374E+02 0.439097E+05 0.596910E+06 0.148032E+08
     4196.00  0.951999E+02 0.430485E+05 0.598796E+06 0.143725E+08
     4206.00  0.964358E+02 0.422009E+05 0.600540E+06 0.139515E+08
     4216.00  0.976449E+02 0.413669E+05 0.602143E+06 0.135400E+08
     4226.00  0.988269E+02 0.405463E+05 0.603608E+06 0.131379E+08
     4236.00  0.999815E+02 0.397389E+05 0.604935E+06 0.127451E+08
     4246.00  0.101109E+03 0.389445E+05 0.606127E+06 0.123613E+08
     4256.00  0.102208E+03 0.381631E+05 0.607185E+06 0.119865E+08
     4266.00  0.103280E+03 0.373945E+05 0.608110E+06 0.116205E+08
     4276.00  0.104323E+03 0.366384E+05 0.608905E+06 0.112632E+08
     4286.00  0.105338E+03 0.358949E+05 0.609571E+06 0.109143E+08
     4296.00  0.106326E+03 0.351636E+05 0.610109E+06 0.105738E+08
     4306.00  0.107284E+03 0.344445E+05 0.610522E+06 0.102415E+08
     4316.00  0.108215E+03 0.337373E+05 0.610811E+06 0.991725E+07
     4326.00  0.109117E+03 0.330421E+05 0.610979E+06 0.960093E+07
     4336.00  0.109991E+03 0.323586E+05 0.611026E+06 0.929240E+07
     4346.00  0.110836E+03 0.316866E+05 0.610955E+06 0.899150E+07
     4356.00  0.111653E+03 0.310260E+05 0.610768E+06 0.869812E+07
     4366.00  0.112441E+03 0.303767E+05 0.610467E+06 0.841210E+07
     4376.00  0.113202E+03 0.297386E+05 0.610053E+06 0.813333E+07
     4386.00  0.113934E+03 0.291114E+05 0.609529E+06 0.786165E+07
     4396.00  0.114637E+03 0.284950E+05 0.608896E+06 0.759695E+07
     4406.00  0.115313E+03 0.278894E+05 0.608156E+06 0.733909E+07
     4416.00  0.115961E+03 0.272943E+05 0.607311E+06 0.708794E+07
     4426.00  0.116580E+03 0.267096E+05 0.606364E+06 0.684338E+07
     4436.00  0.117172E+03 0.261352E+05 0.605315E+06 0.660527E+07
     4446.00  0.117737E+03 0.255709E+05 0.604168E+06 0.637351E+07
     4456.00  0.118274E+03 0.250167E+05 0.602923E+06 0.614796E+07
     4466.00  0.118783E+03 0.244723E+05 0.601583E+06 0.592850E+07
     4476.00  0.119266E+03 0.239376E+05 0.600150E+06 0.571502E+07
     4486.00  0.119721E+03 0.234125E+05 0.598626E+06 0.550739E+07
     4511.00  0.120743E+03 0.221409E+05 0.594430E+06 0.501318E+07
     4536.00  0.121602E+03 0.209264E+05 0.589707E+06 0.455307E+07
     4561.00  0.122299E+03 0.197671E+05 0.584486E+06 0.412534E+07
     4586.00  0.122841E+03 0.186608E+05 0.578798E+06 0.372833E+07
     4611.00  0.123229E+03 0.176058E+05 0.572671E+06 0.336043E+07
     4636.00  0.123470E+03 0.166002E+05 0.566136E+06 0.302010E+07
     4661.00  0.123567E+03 0.156420E+05 0.559219E+06 0.270584E+07
     4686.00  0.123525E+03 0.147297E+05 0.551950E+06 0.241622E+07
     4711.00  0.123348E+03 0.138614E+05 0.544356E+06 0.214986E+07
     4736.00  0.123043E+03 0.130354E+05 0.536462E+06 0.190543E+07
     4761.00  0.122613E+03 0.122501E+05 0.528295E+06 0.168166E+07
     4786.00  0.122064E+03 0.115039E+05 0.519881E+06 0.147732E+07
     4811.00  0.121401E+03 0.107953E+05 0.511242E+06 0.129125E+07
     4836.00  0.120629E+03 0.101226E+05 0.502404E+06 0.112233E+07
     4861.00  0.119753E+03 0.948457E+04 0.493388E+06 0.969471E+06
     4886.00  0.118778E+03 0.887965E+04 0.484217E+06 0.831658E+06
     4911.00  0.117710E+03 0.830649E+04 0.474911E+06 0.707910E+06
     4936.00  0.116553E+03 0.776374E+04 0.465492E+06 0.597291E+06
     4961.00  0.115312E+03 0.725012E+04 0.455978E+06 0.498912E+06
     4986.00  0.113993E+03 0.676436E+04 0.446388E+06 0.411922E+06
     5011.00  0.112600E+03 0.630526E+04 0.436739E+06 0.335516E+06
     5036.00  0.111138E+03 0.587164E+04 0.427050E+06 0.268926E+06
     5061.00  0.109613E+03 0.546237E+04 0.417336E+06 0.211424E+06
     5086.00  0.108027E+03 0.507635E+04 0.407613E+06 0.162317E+06
     5111.00  0.106387E+03 0.471253E+04 0.397894E+06 0.120951E+06
     5136.00  0.104697E+03 0.436987E+04 0.388195E+06 0.867048E+05
     5161.00  0.102960E+03 0.404741E+04 0.378528E+06 0.589926E+05
     5186.00  0.101182E+03 0.374418E+04 0.368905E+06 0.372596E+05
     5211.00  0.993656E+02 0.345928E+04 0.359338E+06 0.209830E+05
     5236.00  0.975159E+02 0.319182E+04 0.349838E+06 0.966937E+04
     5261.00  0.956364E+02 0.294096E+04 0.340415E+06 0.285464E+04
     5286.00  0.937308E+02 0.270588E+04 0.331078E+06 0.102214E+03
     5311.00  0.918029E+02 0.248579E+04 0.321836E+06 0.100208E+04
     5336.00  0.898561E+02 0.227994E+04 0.312698E+06 0.516968E+04
     5361.00  0.878938E+02 0.208761E+04 0.303671E+06 0.122448E+05
     5386.00  0.859194E+02 0.190810E+04 0.294761E+06 0.218906E+05
     5411.00  0.839358E+02 0.174075E+04 0.285976E+06 0.337924E+05
     5436.00  0.819462E+02 0.158492E+04 0.277321E+06 0.476569E+05
     5461.00  0.799534E+02 0.143999E+04 0.268800E+06 0.632109E+05
     5511.00  0.759690E+02 0.118051E+04 0.252184E+06 0.983908E+05
     5561.00  0.720036E+02 0.957923E+03 0.236159E+06 0.137517E+06
     5611.00  0.680756E+02 0.768189E+03 0.220749E+06 0.179042E+06
     5661.00  0.642019E+02 0.607632E+03 0.205974E+06 0.221656E+06
     5711.00  0.603975E+02 0.472900E+03 0.191845E+06 0.264264E+06
     5761.00  0.566757E+02 0.360944E+03 0.178370E+06 0.305965E+06
     5811.00  0.530480E+02 0.268998E+03 0.165549E+06 0.346026E+06
     5861.00  0.495245E+02 0.194561E+03 0.153379E+06 0.383864E+06
     5911.00  0.461137E+02 0.135373E+03 0.141856E+06 0.419030E+06
     5961.00  0.428226E+02 0.894008E+02 0.130968E+06 0.451189E+06
     6011.00  0.396572E+02 0.548156E+02 0.120704E+06 0.480107E+06
     6061.00  0.366219E+02 0.299809E+02 0.111048E+06 0.505637E+06
     6111.00  0.337204E+02 0.134344E+02 0.101984E+06 0.527705E+06
     6161.00  0.309550E+02 0.387412E+01 0.934923E+05 0.546299E+06
     6211.00  0.283271E+02 0.144093E+00 0.855534E+05 0.561461E+06
     6261.00  0.258374E+02 0.122196E+01 0.781463E+05 0.573276E+06
     6311.00  0.234857E+02 0.620674E+01 0.712489E+05 0.581864E+06
     6361.00  0.212710E+02 0.143076E+02 0.648388E+05 0.587370E+06
     6411.00  0.191917E+02 0.248337E+02 0.588931E+05 0.589965E+06
     6461.00  0.172457E+02 0.371842E+02 0.533890E+05 0.589833E+06
     6511.00  0.154303E+02 0.508394E+02 0.483036E+05 0.587171E+06
     6561.00  0.137424E+02 0.653530E+02 0.436141E+05 0.582182E+06
     6611.00  0.121784E+02 0.803437E+02 0.392983E+05 0.575072E+06
     6661.00  0.107346E+02 0.954892E+02 0.353341E+05 0.566049E+06
     6711.00  0.940687E+01 0.110519E+03 0.317002E+05 0.555317E+06
     6761.00  0.819076E+01 0.125209E+03 0.283758E+05 0.543076E+06
     6811.00  0.708178E+01 0.139376E+03 0.253406E+05 0.529521E+06
     6861.00  0.607525E+01 0.152872E+03 0.225753E+05 0.514838E+06
     6911.00  0.516638E+01 0.165584E+03 0.200611E+05 0.499205E+06
     6961.00  0.435030E+01 0.177422E+03 0.177802E+05 0.482789E+06
     7011.00  0.362210E+01 0.188322E+03 0.157156E+05 0.465749E+06
     7061.00  0.297688E+01 0.198244E+03 0.138508E+05 0.448232E+06
     7111.00  0.240974E+01 0.207160E+03 0.121706E+05 0.430376E+06
     7161.00  0.191583E+01 0.215063E+03 0.106603E+05 0.412305E+06
     7211.00  0.149034E+01 0.221954E+03 0.930608E+04 0.394136E+06
     7261.00  0.112857E+01 0.227849E+03 0.809506E+04 0.375973E+06
     7311.00  0.825906E+00 0.232770E+03 0.701501E+04 0.357911E+06
     7361.00  0.577836E+00 0.236748E+03 0.605450E+04 0.340034E+06
     7411.00  0.379987E+00 0.239819E+03 0.520286E+04 0.322418E+06
     7511.00  0.118127E+00 0.243407E+03 0.378710E+04 0.288220E+06
     7611.00  0.818703E-02 0.243895E+03 0.269626E+04 0.255743E+06
     7711.00  0.205662E-01 0.241673E+03 0.186909E+04 0.225291E+06
     7811.00  0.128344E+00 0.237137E+03 0.125354E+04 0.197062E+06
     7911.00  0.307342E+00 0.230672E+03 0.805811E+03 0.171165E+06
     8011.00  0.536132E+00 0.222641E+03 0.489389E+03 0.147636E+06
     8111.00  0.795982E+00 0.213382E+03 0.274151E+03 0.126452E+06
     8211.00  0.107077E+01 0.203197E+03 0.135502E+03 0.107542E+06
     8311.00  0.134689E+01 0.192358E+03 0.535907E+02 0.908002E+05
     8411.00  0.161305E+01 0.181102E+03 0.125954E+02 0.760973E+05
     8511.00  0.186018E+01 0.169633E+03 0.779651E-01 0.632864E+05
     8611.00  0.208122E+01 0.158125E+03 0.641679E+01 0.522111E+05
     8711.00  0.227094E+01 0.146721E+03 0.243067E+02 0.427111E+05
     8811.00  0.242576E+01 0.135540E+03 0.483257E+02 0.346269E+05
     8911.00  0.254359E+01 0.124677E+03 0.745637E+02 0.278035E+05
     9011.00  0.262361E+01 0.114206E+03 0.100307E+03 0.220928E+05
     9111.00  0.266613E+01 0.104184E+03 0.123773E+03 0.173554E+05
     9211.00  0.267239E+01 0.946513E+02 0.143891E+03 0.134622E+05
     9311.00  0.264444E+01 0.856356E+02 0.160123E+03 0.102949E+05
     9411.00  0.258493E+01 0.771532E+02 0.172316E+03 0.774634E+04
     9511.00  0.249704E+01 0.692114E+02 0.180585E+03 0.572049E+04
     9611.00  0.238429E+01 0.618099E+02 0.185224E+03 0.413210E+04
     9711.00  0.225046E+01 0.549423E+02 0.186637E+03 0.290622E+04
     9811.00  0.209948E+01 0.485971E+02 0.185277E+03 0.197759E+04
     9911.00  0.193529E+01 0.427594E+02 0.181617E+03 0.128988E+04
    10011.00  0.176184E+01 0.374111E+02 0.176117E+03 0.794931E+03
    10111.00  0.158293E+01 0.325321E+02 0.169204E+03 0.451989E+03
    10211.00  0.140218E+01 0.281010E+02 0.161268E+03 0.226886E+03
    10311.00  0.122301E+01 0.240951E+02 0.152646E+03 0.912921E+02
    10411.00  0.104856E+01 0.204916E+02 0.143629E+03 0.219862E+02
    10511.00  0.881632E+00 0.172674E+02 0.134458E+03 0.176186E+00
    10611.00  0.724736E+00 0.143993E+02 0.125328E+03 0.108721E+02
    10711.00  0.580015E+00 0.118645E+02 0.116391E+03 0.423148E+02
    10811.00  0.449252E+00 0.964087E+01 0.107763E+03 0.854609E+02
    10911.00  0.333874E+00 0.770654E+01 0.995266E+02 0.133525E+03
    11011.00  0.234945E+00 0.604045E+01 0.917378E+02 0.181575E+03
    11111.00  0.153177E+00 0.462223E+01 0.844293E+02 0.226182E+03
    11211.00  0.889480E-01 0.343224E+01 0.776157E+02 0.265113E+03
    11311.00  0.423122E-01 0.245160E+01 0.712970E+02 0.297073E+03
    11411.00  0.130264E-01 0.166221E+01 0.654621E+02 0.321487E+03
    11511.00  0.571406E-03 0.104673E+01 0.600917E+02 0.338315E+03
    11611.00  0.417922E-02 0.588584E+00 0.551609E+02 0.347899E+03
    11711.00  0.228610E-01 0.271957E+00 0.506409E+02 0.350848E+03
    11811.00  0.554365E-01 0.817657E-01 0.465010E+02 0.347929E+03
    11911.00  0.100565E+00 0.365921E-02 0.427096E+02 0.339999E+03
    12011.00  0.156774E+00 0.240031E-01 0.392352E+02 0.327941E+03
    12111.00  0.222492E+00 0.129868E+00 0.360474E+02 0.312620E+03
    12211.00  0.296078E+00 0.309021E+00 0.331172E+02 0.294856E+03
    12311.00  0.375848E+00 0.549914E+00 0.304174E+02 0.275397E+03
    12411.00  0.460105E+00 0.841677E+00 0.279232E+02 0.254910E+03
    12511.00  0.547168E+00 0.117412E+01 0.256118E+02 0.233972E+03
    12611.00  0.635388E+00 0.153770E+01 0.234628E+02 0.213072E+03
    12711.00  0.723180E+00 0.192356E+01 0.214584E+02 0.192607E+03
    12811.00  0.809037E+00 0.232348E+01 0.195828E+02 0.172895E+03
    12911.00  0.891551E+00 0.272989E+01 0.178227E+02 0.154176E+03
    13011.00  0.969428E+00 0.313590E+01 0.161668E+02 0.136622E+03
    13111.00  0.104150E+01 0.353521E+01 0.146059E+02 0.120346E+03
    13211.00  0.110674E+01 0.392219E+01 0.131327E+02 0.105409E+03
    13311.00  0.116425E+01 0.429181E+01 0.117416E+02 0.918316E+02
    13411.00  0.121332E+01 0.463966E+01 0.104287E+02 0.795971E+02
    13511.00  0.125336E+01 0.496194E+01 0.919128E+01 0.686639E+02
    13611.00  0.128395E+01 0.525542E+01 0.802805E+01 0.589693E+02
    13711.00  0.130481E+01 0.551743E+01 0.693863E+01 0.504358E+02
    13811.00  0.131585E+01 0.574589E+01 0.592349E+01 0.429766E+02
    13911.00  0.131709E+01 0.593920E+01 0.498373E+01 0.364996E+02
    14011.00  0.130871E+01 0.609629E+01 0.412086E+01 0.309106E+02
    14111.00  0.129100E+01 0.621656E+01 0.333665E+01 0.261166E+02
    14211.00  0.126440E+01 0.629988E+01 0.263289E+01 0.220276E+02
    14311.00  0.122944E+01 0.634651E+01 0.201123E+01 0.185584E+02
    14411.00  0.118676E+01 0.635712E+01 0.147304E+01 0.156296E+02
    14511.00  0.113709E+01 0.633274E+01 0.101921E+01 0.131683E+02
    14611.00  0.108123E+01 0.627473E+01 0.650054E+00 0.111087E+02
    14711.00  0.102003E+01 0.618473E+01 0.365178E+00 0.939159E+01
    14811.00  0.954404E+00 0.606464E+01 0.163403E+00 0.796491E+01
    14911.00  0.885288E+00 0.591658E+01 0.426999E-01 0.678294E+01
    15011.00  0.813642E+00 0.574289E+01 0.147177E-03 0.580604E+01
    15111.00  0.740429E+00 0.554600E+01 0.319219E-01 0.500016E+01
    15211.00  0.666608E+00 0.532852E+01 0.133313E+00 0.433624E+01
    15311.00  0.593119E+00 0.509312E+01 0.298761E+00 0.378972E+01
    15411.00  0.520870E+00 0.484251E+01 0.521918E+00 0.333990E+01
    15511.00  0.450730E+00 0.457945E+01 0.795735E+00 0.296947E+01
    15611.00  0.383517E+00 0.430669E+01 0.111256E+01 0.266404E+01
    15711.00  0.319988E+00 0.402694E+01 0.146427E+01 0.241159E+01
    15811.00  0.260837E+00 0.374285E+01 0.184239E+01 0.220221E+01
    15911.00  0.206680E+00 0.345700E+01 0.223823E+01 0.202765E+01
    16011.00  0.158059E+00 0.317185E+01 0.264304E+01 0.188105E+01
    16111.00  0.115431E+00 0.288975E+01 0.304819E+01 0.175672E+01
    16211.00  0.791662E-01 0.261292E+01 0.344525E+01 0.164991E+01
    16311.00  0.495494E-01 0.234341E+01 0.382620E+01 0.155665E+01
    16411.00  0.267760E-01 0.208311E+01 0.418355E+01 0.147361E+01
    16511.00  0.109533E-01 0.183374E+01 0.451043E+01 0.139801E+01
    16611.00  0.210219E-02 0.159682E+01 0.480073E+01 0.132756E+01
    16711.00  0.159166E-03 0.137371E+01 0.504921E+01 0.126035E+01
    16811.00  0.497983E-02 0.116556E+01 0.525154E+01 0.119485E+01
    16911.00  0.163429E-01 0.973322E+00 0.540439E+01 0.112986E+01
    17011.00  0.339549E-01 0.797765E+00 0.550545E+01 0.106450E+01
    17111.00  0.574563E-01 0.639468E+00 0.555347E+01 0.998145E+00
    17211.00  0.864269E-01 0.498819E+00 0.554821E+01 0.930451E+00
    17311.00  0.120393E+00 0.376030E+00 0.549047E+01 0.861309E+00
    17411.00  0.158834E+00 0.271136E+00 0.538203E+01 0.790829E+00
    17511.00  0.201190E+00 0.184011E+00 0.522556E+01 0.719314E+00
    17611.00  0.246868E+00 0.114369E+00 0.502462E+01 0.647239E+00
    17711.00  0.295255E+00 0.617834E-01 0.478349E+01 0.575221E+00
    17811.00  0.345715E+00 0.256903E-01 0.450710E+01 0.503988E+00
    17911.00  0.397608E+00 0.540518E-02 0.420093E+01 0.434352E+00
    18011.00  0.450292E+00 0.133513E-03 0.387091E+01 0.367174E+00
    18111.00  0.503128E+00 0.898370E-02 0.352323E+01 0.303337E+00
    18211.00  0.555490E+00 0.309801E-01 0.316427E+01 0.243713E+00
    18311.00  0.606776E+00 0.650759E-01 0.280048E+01 0.189136E+00
    18411.00  0.656403E+00 0.110167E+00 0.243823E+01 0.140377E+00
    18511.00  0.703823E+00 0.165102E+00 0.208370E+01 0.981192E-01
    18611.00  0.748523E+00 0.228700E+00 0.174279E+01 0.629390E-01
    18711.00  0.790031E+00 0.299758E+00 0.142099E+01 0.352902E-01
    18811.00  0.827920E+00 0.377064E+00 0.112332E+01 0.154917E-01
    18911.00  0.861812E+00 0.459411E+00 0.854241E+00 0.372011E-02
    19011.00  0.891382E+00 0.545604E+00 0.617584E+00 0.516377E-05
    19111.00  0.916352E+00 0.634473E+00 0.416500E+00 0.423038E-02
    19311.00  0.951682E+00 0.815724E+00 0.130092E+00 0.353297E-01
    19511.00  0.966724E+00 0.994607E+00 0.568397E-02 0.933863E-01
    19711.00  0.961296E+00 0.116346E+01 0.422234E-01 0.172991E+00
    19911.00  0.936069E+00 0.131570E+01 0.227710E+00 0.267455E+00
    20111.00  0.892504E+00 0.144595E+01 0.540687E+00 0.369384E+00
    20311.00  0.832751E+00 0.155012E+01 0.952288E+00 0.471262E+00
    20511.00  0.759535E+00 0.162542E+01 0.142865E+01 0.565995E+00
    20711.00  0.676022E+00 0.167036E+01 0.193352E+01 0.647386E+00
    20911.00  0.585668E+00 0.168466E+01 0.243080E+01 0.710480E+00
    21111.00  0.492076E+00 0.166918E+01 0.288694E+01 0.751812E+00
    21311.00  0.398846E+00 0.162575E+01 0.327296E+01 0.769505E+00
    21511.00  0.309441E+00 0.155707E+01 0.356605E+01 0.763274E+00
    21711.00  0.227056E+00 0.146651E+01 0.375063E+01 0.734309E+00
    21911.00  0.154511E+00 0.135794E+01 0.381881E+01 0.685087E+00
    22111.00  0.941616E-01 0.123556E+01 0.377045E+01 0.619130E+00
    22311.00  0.478296E-01 0.110371E+01 0.361253E+01 0.540708E+00
    22511.00  0.167601E-01 0.966754E+00 0.335830E+01 0.454557E+00
    22711.00  0.159844E-02 0.828847E+00 0.302594E+01 0.365572E+00
    22911.00  0.239326E-02 0.693881E+00 0.263711E+01 0.278546E+00
    23111.00  0.186191E-01 0.565333E+00 0.221535E+01 0.197920E+00
    23311.00  0.492192E-01 0.446193E+00 0.178449E+01 0.127586E+00
    23511.00  0.926656E-01 0.338895E+00 0.136720E+01 0.707285E-01
    23711.00  0.147031E+00 0.245279E+00 0.983661E+00 0.297174E-01
    23911.00  0.210077E+00 0.166579E+00 0.650587E+00 0.604040E-02
    24111.00  0.279336E+00 0.103427E+00 0.380448E+00 0.284793E-03
    24311.00  0.352217E+00 0.558852E-01 0.181086E+00 0.121581E-01
    24511.00  0.426089E+00 0.234877E-01 0.555970E-01 0.405449E-01
    24711.00  0.498380E+00 0.530581E-02 0.253910E-02 0.835955E-01
    24911.00  0.566656E+00 0.178989E-04 0.163860E-01 0.138839E+00
    25111.00  0.628698E+00 0.599045E-02 0.881921E-01 0.203319E+00
    25311.00  0.682568E+00 0.213629E-01 0.206407E+00 0.273740E+00
    25511.00  0.726661E+00 0.441334E-01 0.357781E+00 0.346625E+00
    25711.00  0.759742E+00 0.722430E-01 0.528289E+00 0.418477E+00
    25911.00  0.780971E+00 0.103654E+00 0.704031E+00 0.485926E+00
    26111.00  0.789919E+00 0.136421E+00 0.872046E+00 0.545884E+00
    26311.00  0.786550E+00 0.168754E+00 0.102099E+01 0.595665E+00
    26511.00  0.771227E+00 0.199069E+00 0.114170E+01 0.633110E+00
    26711.00  0.744659E+00 0.226024E+00 0.122748E+01 0.656651E+00
    26911.00  0.707887E+00 0.248555E+00 0.127440E+01 0.665393E+00
         IE==>      4            5            6
        1.00  0.000000E+00 0.000000E+00 0.000000E+00
        2.00  0.000000E+00 0.000000E+00 0.000000E+00
        3.00  0.000000E+00 0.000000E+00 0.000000E+00
        4.00  0.000000E+00 0.000000E+00 0.162765E-37
        5.00  0.000000E+00 0.395255E-37 0.156600E-35
        6.00  0.123781E-37 0.165269E-35 0.652505E-34
        7.00  0.281771E-36 0.387883E-34 0.152607E-32
        8.00  0.420204E-35 0.596537E-33 0.233878E-31
        9.00  0.453639E-34 0.664306E-32 0.259538E-30
       10.00  0.379536E-33 0.573458E-31 0.223263E-29
       11.00  0.258348E-32 0.402865E-30 0.156299E-28
       12.00  0.148305E-31 0.238745E-29 0.923023E-28
       13.00  0.737814E-31 0.122650E-28 0.472530E-27
       14.00  0.324920E-30 0.557912E-28 0.214196E-26
       15.00  0.128807E-29 0.228521E-27 0.874290E-26
       16.00  0.465924E-29 0.854341E-27 0.325721E-25
       17.00  0.155493E-28 0.294776E-26 0.111993E-24
       18.00  0.483178E-28 0.947317E-26 0.358657E-24
       19.00  0.140877E-27 0.285745E-25 0.107808E-23
       20.00  0.387906E-27 0.814270E-25 0.306144E-23
       21.00  0.101432E-26 0.220432E-24 0.825882E-23
       22.00  0.253078E-26 0.569600E-24 0.212668E-22
       23.00  0.605005E-26 0.141076E-23 0.524897E-22
       24.00  0.139075E-25 0.336120E-23 0.124624E-21
       25.00  0.308385E-25 0.772799E-23 0.285538E-21
       26.00  0.661457E-25 0.171943E-22 0.633098E-21
       27.00  0.137576E-24 0.371128E-22 0.136176E-20
       28.00  0.278082E-24 0.778832E-22 0.284781E-20
       29.00  0.547318E-24 0.159222E-21 0.580177E-20
       30.00  0.105077E-23 0.317666E-21 0.115351E-19
       31.00  0.197089E-23 0.619503E-21 0.224173E-19
       32.00  0.361684E-23 0.118263E-20 0.426463E-19
       33.00  0.650228E-23 0.221287E-20 0.795210E-19
       34.00  0.114653E-22 0.406338E-20 0.145514E-18
       35.00  0.198497E-22 0.733020E-20 0.261594E-18
       36.00  0.337748E-22 0.130039E-19 0.462467E-18
       37.00  0.565319E-22 0.227072E-19 0.804756E-18
       38.00  0.931562E-22 0.390615E-19 0.137957E-17
       39.00  0.151242E-21 0.662474E-19 0.233163E-17
       40.00  0.242091E-21 0.110850E-18 0.388795E-17
       42.00  0.595951E-21 0.298843E-18 0.104093E-16
       44.00  0.139595E-20 0.769039E-18 0.266024E-16
       46.00  0.312343E-20 0.189692E-17 0.651654E-16
       48.00  0.669769E-20 0.450102E-17 0.153559E-15
       50.00  0.138027E-19 0.103065E-16 0.349202E-15
       52.00  0.274022E-19 0.228384E-16 0.768474E-15
       54.00  0.525107E-19 0.490960E-16 0.164063E-14
       56.00  0.972899E-19 0.102616E-15 0.340551E-14
       58.00  0.174507E-18 0.208942E-15 0.688649E-14
       60.00  0.303327E-18 0.415193E-15 0.135903E-13
       62.00  0.511269E-18 0.806462E-15 0.262162E-13
       64.00  0.835912E-18 0.153340E-14 0.495049E-13
       66.00  0.132558E-17 0.285779E-14 0.916291E-13
       68.00  0.203775E-17 0.522675E-14 0.166435E-12
       70.00  0.303327E-17 0.939146E-14 0.297001E-12
       72.00  0.436395E-17 0.165946E-13 0.521202E-12
       74.00  0.605079E-17 0.288625E-13 0.900299E-12
       76.00  0.805068E-17 0.494540E-13 0.153203E-11
       78.00  0.102117E-16 0.835421E-13 0.257033E-11
       80.00  0.122238E-16 0.139239E-12 0.425462E-11
       82.00  0.135831E-16 0.229117E-12 0.695305E-11
       84.00  0.136127E-16 0.372446E-12 0.112254E-10
       86.00  0.116241E-16 0.598452E-12 0.179137E-10
       88.00  0.737167E-17 0.951016E-12 0.282725E-10
       90.00  0.206821E-17 0.149539E-11 0.441523E-10
       92.00  0.405506E-18 0.232773E-11 0.682579E-10
       94.00  0.143026E-16 0.358848E-11 0.104509E-09
       96.00  0.695185E-16 0.548107E-11 0.158537E-09
       98.00  0.216888E-15 0.829780E-11 0.238371E-09
      100.00  0.550840E-15 0.124554E-10 0.355364E-09
      102.00  0.123917E-14 0.185438E-10 0.525459E-09
      104.00  0.256988E-14 0.273918E-10 0.770881E-09
      106.00  0.502355E-14 0.401566E-10 0.112241E-08
      108.00  0.938325E-14 0.584425E-10 0.162236E-08
      110.00  0.168992E-13 0.844605E-10 0.232863E-08
      112.00  0.295319E-13 0.121239E-09 0.331983E-08
      114.00  0.503072E-13 0.172900E-09 0.470217E-08
      116.00  0.838289E-13 0.245029E-09 0.661832E-08
      118.00  0.137011E-12 0.345143E-09 0.925888E-08
      122.00  0.348194E-12 0.672973E-09 0.178080E-07
      126.00  0.836418E-12 0.128367E-08 0.335065E-07
      130.00  0.191630E-11 0.239864E-08 0.617589E-07
      134.00  0.421508E-11 0.439616E-08 0.111652E-06
      138.00  0.894615E-11 0.791179E-08 0.198211E-06
      142.00  0.183942E-10 0.139965E-07 0.345886E-06
      146.00  0.367566E-10 0.243628E-07 0.593880E-06
      150.00  0.715739E-10 0.417618E-07 0.100417E-05
      154.00  0.136117E-09 0.705552E-07 0.167345E-05
      158.00  0.253300E-09 0.117572E-06 0.275068E-05
      162.00  0.461997E-09 0.193376E-06 0.446264E-05
      166.00  0.827081E-09 0.314126E-06 0.715063E-05
      170.00  0.145516E-08 0.504276E-06 0.113229E-04
      174.00  0.251891E-08 0.800447E-06 0.177282E-04
      178.00  0.429428E-08 0.125696E-05 0.274597E-04
      182.00  0.721666E-08 0.195364E-05 0.420977E-04
      186.00  0.119648E-07 0.300676E-05 0.639067E-04
      190.00  0.195850E-07 0.458424E-05 0.961049E-04
      194.00  0.316724E-07 0.692666E-05 0.143228E-03
      198.00  0.506352E-07 0.103760E-04 0.211619E-03
      202.00  0.800724E-07 0.154147E-04 0.310083E-03
      206.00  0.125314E-06 0.227187E-04 0.450753E-03
      210.00  0.194185E-06 0.332284E-04 0.650234E-03
      214.00  0.298075E-06 0.482435E-04 0.931105E-03
      218.00  0.453429E-06 0.695490E-04 0.132387E-02
      222.00  0.683816E-06 0.995816E-04 0.186947E-02
      226.00  0.102276E-05 0.141649E-03 0.262261E-02
      230.00  0.151762E-05 0.200213E-03 0.365583E-02
      234.00  0.223483E-05 0.281266E-03 0.506496E-02
      238.00  0.326701E-05 0.392805E-03 0.697579E-02
      242.00  0.474245E-05 0.545456E-03 0.955269E-02
      246.00  0.683780E-05 0.753264E-03 0.130093E-01
      250.00  0.979491E-05 0.103471E-02 0.176220E-01
      254.00  0.139431E-04 0.141399E-02 0.237469E-01
      258.00  0.197281E-04 0.192267E-02 0.318404E-01
      262.00  0.277509E-04 0.260173E-02 0.424853E-01
      266.00  0.388168E-04 0.350415E-02 0.564224E-01
      270.00  0.540003E-04 0.469818E-02 0.745899E-01
      274.00  0.747286E-04 0.627138E-02 0.981712E-01
      282.00  0.140964E-03 0.110336E-01 0.167897E+00
      290.00  0.260878E-03 0.191015E-01 0.282522E+00
      298.00  0.474224E-03 0.325694E-01 0.468166E+00
      306.00  0.847638E-03 0.547402E-01 0.764621E+00
      314.00  0.149123E-02 0.907596E-01 0.123175E+01
      322.00  0.258451E-02 0.148553E+00 0.195858E+01
      330.00  0.441642E-02 0.240194E+00 0.307599E+01
      338.00  0.744651E-02 0.383883E+00 0.477438E+01
      346.00  0.123974E-01 0.606794E+00 0.732793E+01
      354.00  0.203934E-01 0.949124E+00 0.111278E+02
      362.00  0.331662E-01 0.146982E+01 0.167268E+02
      370.00  0.533580E-01 0.225459E+01 0.248998E+02
      378.00  0.849630E-01 0.342711E+01 0.367237E+02
      386.00  0.133968E+00 0.516442E+01 0.536831E+02
      394.00  0.209275E+00 0.771824E+01 0.778097E+02
      402.00  0.324017E+00 0.114440E+02 0.111864E+03
      410.00  0.497429E+00 0.168405E+02 0.159572E+03
      418.00  0.757495E+00 0.246032E+02 0.225927E+03
      426.00  0.114464E+01 0.356962E+02 0.317584E+03
      434.00  0.171694E+01 0.514491E+02 0.443351E+03
      442.00  0.255726E+01 0.736847E+02 0.614828E+03
      450.00  0.378325E+01 0.104891E+03 0.847199E+03
      458.00  0.556104E+01 0.148448E+03 0.116024E+04
      466.00  0.812405E+01 0.208926E+03 0.157960E+04
      474.00  0.117986E+02 0.292478E+03 0.213832E+04
      482.00  0.170390E+02 0.407356E+03 0.287884E+04
      490.00  0.244747E+02 0.564585E+03 0.385536E+04
      498.00  0.349747E+02 0.778841E+03 0.513689E+04
      506.00  0.497344E+02 0.106960E+04 0.681084E+04
      514.00  0.703914E+02 0.146262E+04 0.898762E+04
      522.00  0.991830E+02 0.199188E+04 0.118061E+05
      530.00  0.139155E+03 0.270205E+04 0.154401E+05
      538.00  0.194443E+03 0.365176E+04 0.201071E+05
      546.00  0.270646E+03 0.491772E+04 0.260776E+05
      554.00  0.375328E+03 0.660015E+04 0.336872E+05
      562.00  0.518682E+03 0.882968E+04 0.433515E+05
      570.00  0.714419E+03 0.117763E+05 0.555834E+05
      578.00  0.980948E+03 0.156611E+05 0.710142E+05
      586.00  0.134294E+04 0.207706E+05 0.904193E+05
      596.00  0.198102E+04 0.294560E+05 0.121731E+06
      606.00  0.291062E+04 0.416195E+05 0.163083E+06
      616.00  0.426091E+04 0.586075E+05 0.217463E+06
      626.00  0.621709E+04 0.822779E+05 0.288691E+06
      636.00  0.904472E+04 0.115194E+06 0.381638E+06
      646.00  0.131245E+05 0.160893E+06 0.502503E+06
      656.00  0.190024E+05 0.224262E+06 0.659162E+06
      666.00  0.274625E+05 0.312063E+06 0.861612E+06
      676.00  0.396324E+05 0.433670E+06 0.112253E+07
      686.00  0.571380E+05 0.602121E+06 0.145801E+07
      696.00  0.823306E+05 0.835610E+06 0.188845E+07
      706.00  0.118624E+06 0.115964E+07 0.243979E+07
      716.00  0.170997E+06 0.161014E+07 0.314505E+07
      726.00  0.246754E+06 0.223806E+07 0.404637E+07
      736.00  0.356687E+06 0.311620E+07 0.519781E+07
      746.00  0.516868E+06 0.434951E+07 0.666907E+07
      756.00  0.751472E+06 0.609085E+07 0.855069E+07
      766.00  0.109727E+07 0.856563E+07 0.109613E+08
      776.00  0.161099E+07 0.121111E+08 0.140582E+08
      786.00  0.238149E+07 0.172402E+08 0.180528E+08
      796.00  0.355077E+07 0.247498E+08 0.232348E+08
      806.00  0.535090E+07 0.359065E+08 0.300098E+08
      816.00  0.817191E+07 0.527838E+08 0.389620E+08
      826.00  0.126917E+08 0.788960E+08 0.509628E+08
      836.00  0.201391E+08 0.120461E+09 0.673702E+08
      846.00  0.328609E+08 0.189092E+09 0.904214E+08
      856.00  0.556547E+08 0.308021E+09 0.124076E+09
      860.00  0.696386E+08 0.379431E+09 0.142018E+09
      860.56  0.718919E+08 0.390857E+09 0.144775E+09
      861.11  0.742318E+08 0.402700E+09 0.147604E+09
      861.67  0.766623E+08 0.414981E+09 0.150507E+09
      862.22  0.791876E+08 0.427718E+09 0.153487E+09
      862.78  0.818122E+08 0.440932E+09 0.156547E+09
      863.33  0.845407E+08 0.454645E+09 0.159689E+09
      863.89  0.873782E+08 0.468881E+09 0.162918E+09
      864.44  0.903298E+08 0.483663E+09 0.166236E+09
      865.00  0.934011E+08 0.499017E+09 0.169646E+09
      865.56  0.965980E+08 0.514972E+09 0.173153E+09
      866.00  0.992500E+08 0.528186E+09 0.176030E+09
      866.11  0.999266E+08 0.531554E+09 0.176759E+09
      866.67  0.103394E+09 0.548796E+09 0.180470E+09
      867.22  0.107006E+09 0.566730E+09 0.184289E+09
      867.78  0.110771E+09 0.585389E+09 0.188220E+09
      868.33  0.114697E+09 0.604810E+09 0.192269E+09
      868.89  0.118791E+09 0.625031E+09 0.196439E+09
      869.44  0.123063E+09 0.646094E+09 0.200737E+09
      870.00  0.127523E+09 0.668042E+09 0.205168E+09
      870.56  0.132180E+09 0.690921E+09 0.209738E+09
      871.11  0.137044E+09 0.714780E+09 0.214452E+09
      871.67  0.142128E+09 0.739671E+09 0.219317E+09
      872.22  0.147443E+09 0.765651E+09 0.224340E+09
      872.78  0.153002E+09 0.792778E+09 0.229528E+09
      873.33  0.158820E+09 0.821116E+09 0.234889E+09
      873.89  0.164910E+09 0.850733E+09 0.240431E+09
      874.44  0.171289E+09 0.881700E+09 0.246163E+09
      875.00  0.177973E+09 0.914095E+09 0.252094E+09
      875.56  0.184981E+09 0.948001E+09 0.258233E+09
      876.00  0.190833E+09 0.976273E+09 0.263302E+09
      876.11  0.192332E+09 0.983506E+09 0.264591E+09
      876.67  0.200046E+09 0.102071E+10 0.271180E+09
      877.22  0.208146E+09 0.105970E+10 0.278010E+09
      877.78  0.216656E+09 0.110060E+10 0.285096E+09
      878.33  0.225602E+09 0.114352E+10 0.292449E+09
      878.89  0.235012E+09 0.118859E+10 0.300084E+09
      879.44  0.244915E+09 0.123595E+10 0.308018E+09
      880.00  0.255344E+09 0.128574E+10 0.316266E+09
      880.56  0.266334E+09 0.133812E+10 0.324847E+09
      881.11  0.277922E+09 0.139326E+10 0.333779E+09
      881.67  0.290149E+09 0.145135E+10 0.343082E+09
      882.22  0.303060E+09 0.151259E+10 0.352780E+09
      882.78  0.316703E+09 0.157719E+10 0.362895E+09
      883.33  0.331130E+09 0.164539E+10 0.373454E+09
      883.89  0.346397E+09 0.171745E+10 0.384484E+09
      884.44  0.362568E+09 0.179365E+10 0.396015E+09
      885.00  0.379708E+09 0.187428E+10 0.408079E+09
      885.56  0.397892E+09 0.195969E+10 0.420713E+09
      886.00  0.413244E+09 0.203170E+10 0.431255E+09
      886.11  0.417200E+09 0.205024E+10 0.433954E+09
      886.67  0.437721E+09 0.214632E+10 0.447844E+09
      887.22  0.459552E+09 0.224838E+10 0.462428E+09
      887.78  0.482799E+09 0.235688E+10 0.477756E+09
      888.33  0.507579E+09 0.247235E+10 0.493882E+09
      888.89  0.534022E+09 0.259538E+10 0.510866E+09
      889.44  0.562270E+09 0.272660E+10 0.528773E+09
      890.00  0.592481E+09 0.286672E+10 0.547674E+09
      890.56  0.624832E+09 0.301653E+10 0.567648E+09
      891.11  0.659515E+09 0.317690E+10 0.588783E+09
      891.67  0.696750E+09 0.334879E+10 0.611175E+09
      892.22  0.736776E+09 0.353329E+10 0.634930E+09
      892.78  0.779865E+09 0.373161E+10 0.660167E+09
      893.33  0.826321E+09 0.394509E+10 0.687019E+09
      893.89  0.876484E+09 0.417526E+10 0.715633E+09
      894.44  0.930740E+09 0.442384E+10 0.746174E+09
      895.00  0.989523E+09 0.469274E+10 0.778828E+09
      895.56  0.105332E+10 0.498418E+10 0.813803E+09
      896.00  0.110835E+10 0.523520E+10 0.843612E+09
      896.11  0.112271E+10 0.530062E+10 0.851335E+09
      896.67  0.119830E+10 0.564491E+10 0.891692E+09
      897.22  0.128085E+10 0.602030E+10 0.935177E+09
      897.78  0.137119E+10 0.643050E+10 0.982137E+09
      898.33  0.147028E+10 0.687980E+10 0.103297E+10
      898.89  0.157925E+10 0.737316E+10 0.108813E+10
      899.44  0.169940E+10 0.791634E+10 0.114814E+10
      900.00  0.183224E+10 0.851606E+10 0.121361E+10
      900.56  0.197957E+10 0.918020E+10 0.128527E+10
      901.11  0.214347E+10 0.991802E+10 0.136393E+10
      901.67  0.232645E+10 0.107405E+11 0.145058E+10
      902.22  0.253146E+10 0.116608E+11 0.154638E+10
      902.78  0.276208E+10 0.126946E+11 0.165271E+10
      903.33  0.302260E+10 0.138607E+11 0.177124E+10
      903.89  0.331825E+10 0.151823E+11 0.190397E+10
      904.44  0.365543E+10 0.166874E+11 0.205334E+10
      905.00  0.404207E+10 0.184110E+11 0.222234E+10
      905.56  0.448805E+10 0.203963E+11 0.241468E+10
      906.00  0.489580E+10 0.222093E+11 0.258845E+10
      906.11  0.500579E+10 0.226981E+11 0.263502E+10
      906.67  0.561114E+10 0.253857E+11 0.288921E+10
      907.22  0.632451E+10 0.285486E+11 0.318477E+10
      907.78  0.717256E+10 0.323037E+11 0.353145E+10
      908.33  0.819060E+10 0.368055E+11 0.394210E+10
      908.89  0.942625E+10 0.422625E+11 0.443387E+10
      909.44  0.109448E+11 0.489602E+11 0.503018E+10
      910.00  0.128379E+11 0.572990E+11 0.576366E+10
      910.56  0.152371E+11 0.678536E+11 0.668080E+10
      911.11  0.183368E+11 0.814723E+11 0.784988E+10
      911.67  0.224336E+11 0.994495E+11 0.937437E+10
      912.22  0.279985E+11 0.123838E+12 0.114174E+11
      912.78  0.358149E+11 0.158052E+12 0.142486E+11
      913.33  0.472646E+11 0.208107E+12 0.183400E+11
      913.89  0.649695E+11 0.285414E+12 0.245815E+11
      914.44  0.944098E+11 0.413805E+12 0.348198E+11
      915.00  0.148656E+12 0.650093E+12 0.534288E+11
      915.10  0.163184E+12 0.713331E+12 0.583762E+11
      915.12  0.166195E+12 0.726438E+12 0.594004E+11
      915.14  0.169289E+12 0.739906E+12 0.604522E+11
      915.16  0.172470E+12 0.753747E+12 0.615327E+11
      915.18  0.175739E+12 0.767975E+12 0.626429E+11
      915.20  0.179101E+12 0.782604E+12 0.637841E+11
      915.21  0.182558E+12 0.797651E+12 0.649572E+11
      915.23  0.186116E+12 0.813131E+12 0.661636E+11
      915.25  0.189776E+12 0.829060E+12 0.674045E+11
      915.27  0.193545E+12 0.845456E+12 0.686812E+11
      915.29  0.197425E+12 0.862338E+12 0.699952E+11
      915.31  0.201421E+12 0.879724E+12 0.713479E+11
      915.33  0.205538E+12 0.897636E+12 0.727408E+11
      915.35  0.209781E+12 0.916094E+12 0.741757E+11
      915.37  0.214155E+12 0.935120E+12 0.756541E+11
      915.39  0.218665E+12 0.954739E+12 0.771778E+11
      915.41  0.223317E+12 0.974975E+12 0.787488E+11
      915.42  0.228117E+12 0.995854E+12 0.803691E+11
      915.44  0.233071E+12 0.101740E+13 0.820406E+11
      915.46  0.238187E+12 0.103965E+13 0.837657E+11
      915.48  0.243470E+12 0.106263E+13 0.855466E+11
      915.50  0.248929E+12 0.108637E+13 0.873858E+11
      915.52  0.254571E+12 0.111091E+13 0.892859E+11
      915.54  0.260405E+12 0.113628E+13 0.912495E+11
      915.56  0.266439E+12 0.116251E+13 0.932796E+11
      915.58  0.272682E+12 0.118966E+13 0.953791E+11
      915.60  0.279145E+12 0.121776E+13 0.975514E+11
      915.62  0.285837E+12 0.124686E+13 0.997998E+11
      915.63  0.292770E+12 0.127700E+13 0.102128E+12
      915.65  0.299955E+12 0.130824E+13 0.104540E+12
      915.67  0.307404E+12 0.134062E+13 0.107039E+12
      915.69  0.315132E+12 0.137422E+13 0.109630E+12
      915.71  0.323150E+12 0.140907E+13 0.112318E+12
      915.73  0.331475E+12 0.144526E+13 0.115107E+12
      915.75  0.340123E+12 0.148285E+13 0.118003E+12
      915.77  0.349109E+12 0.152191E+13 0.121011E+12
      915.79  0.358451E+12 0.156251E+13 0.124137E+12
      915.81  0.368170E+12 0.160475E+13 0.127387E+12
      915.83  0.378284E+12 0.164871E+13 0.130767E+12
      915.84  0.388817E+12 0.169448E+13 0.134286E+12
      915.86  0.399790E+12 0.174217E+13 0.137951E+12
      915.88  0.411230E+12 0.179188E+13 0.141769E+12
      915.90  0.423162E+12 0.184373E+13 0.145750E+12
      915.92  0.435616E+12 0.189784E+13 0.149903E+12
      915.94  0.448621E+12 0.195435E+13 0.154238E+12
      915.96  0.462212E+12 0.201340E+13 0.158766E+12
      915.98  0.476423E+12 0.207514E+13 0.163498E+12
      916.00  0.491292E+12 0.213973E+13 0.168447E+12
      916.00  0.493300E+12 0.214846E+13 0.169115E+12
      916.02  0.506862E+12 0.220737E+13 0.173627E+12
      916.04  0.523175E+12 0.227824E+13 0.179052E+12
      916.05  0.540281E+12 0.235254E+13 0.184737E+12
      916.07  0.558231E+12 0.243051E+13 0.190701E+12
      916.09  0.577081E+12 0.251239E+13 0.196960E+12
      916.11  0.596893E+12 0.259844E+13 0.203536E+12
      916.13  0.617733E+12 0.268895E+13 0.210450E+12
      916.15  0.639672E+12 0.278423E+13 0.217725E+12
      916.17  0.662790E+12 0.288463E+13 0.225387E+12
      916.19  0.687171E+12 0.299051E+13 0.233464E+12
      916.21  0.712909E+12 0.310228E+13 0.241987E+12
      916.23  0.740107E+12 0.322038E+13 0.250989E+12
      916.25  0.768876E+12 0.334530E+13 0.260506E+12
      916.26  0.799340E+12 0.347757E+13 0.270580E+12
      916.28  0.831633E+12 0.361778E+13 0.281253E+12
      916.30  0.865904E+12 0.376657E+13 0.292575E+12
      916.32  0.902318E+12 0.392466E+13 0.304598E+12
      916.34  0.941055E+12 0.409283E+13 0.317384E+12
      916.36  0.982318E+12 0.427196E+13 0.330996E+12
      916.38  0.102633E+13 0.446301E+13 0.345508E+12
      916.40  0.107334E+13 0.466706E+13 0.361000E+12
      916.42  0.112362E+13 0.488531E+13 0.377564E+12
      916.44  0.117748E+13 0.511910E+13 0.395300E+12
      916.46  0.123528E+13 0.536995E+13 0.414322E+12
      916.47  0.129739E+13 0.563953E+13 0.434755E+12
      916.49  0.136427E+13 0.592976E+13 0.456744E+12
      916.51  0.143640E+13 0.624278E+13 0.480449E+12
      916.53  0.151435E+13 0.658104E+13 0.506054E+12
      916.55  0.159875E+13 0.694730E+13 0.533767E+12
      916.57  0.169034E+13 0.734472E+13 0.563825E+12
      916.59  0.178995E+13 0.777692E+13 0.596499E+12
      916.61  0.189853E+13 0.824804E+13 0.632100E+12
      916.63  0.201719E+13 0.876288E+13 0.670987E+12
      916.65  0.214721E+13 0.932698E+13 0.713577E+12
      916.67  0.229008E+13 0.994676E+13 0.760351E+12
      916.68  0.244752E+13 0.106298E+14 0.811872E+12
      916.70  0.262157E+13 0.113848E+14 0.868802E+12
      916.72  0.281462E+13 0.122222E+14 0.931919E+12
      916.74  0.302953E+13 0.131544E+14 0.100215E+13
      916.76  0.326968E+13 0.141960E+14 0.108058E+13
      916.78  0.353914E+13 0.153647E+14 0.116855E+13
      916.80  0.384280E+13 0.166818E+14 0.126764E+13
      916.82  0.418664E+13 0.181730E+14 0.137978E+13
      916.84  0.457796E+13 0.198700E+14 0.150735E+13
      916.86  0.502575E+13 0.218119E+14 0.165325E+13
      916.88  0.554124E+13 0.240472E+14 0.182113E+13
      916.89  0.613848E+13 0.266370E+14 0.201554E+13
      916.91  0.683533E+13 0.296585E+14 0.224226E+13
      916.93  0.765461E+13 0.332108E+14 0.250869E+13
      916.95  0.862591E+13 0.374220E+14 0.282438E+13
      916.97  0.978793E+13 0.424599E+14 0.320188E+13
      916.99  0.111920E+14 0.485470E+14 0.365779E+13
      917.01  0.129071E+14 0.559819E+14 0.421437E+13
      917.03  0.150267E+14 0.651702E+14 0.490189E+13
      917.05  0.176796E+14 0.766700E+14 0.576195E+13
      917.07  0.210448E+14 0.912564E+14 0.685229E+13
      917.09  0.253721E+14 0.110012E+15 0.825357E+13
      917.11  0.310094E+14 0.134445E+15 0.100780E+14
      917.12  0.384300E+14 0.166604E+15 0.124780E+14
      917.14  0.482361E+14 0.209100E+15 0.156473E+14
      917.16  0.610603E+14 0.264672E+15 0.197889E+14
      917.18  0.771734E+14 0.334489E+15 0.249875E+14
      917.20  0.954923E+14 0.413855E+15 0.308900E+14
      917.22  0.112123E+15 0.485895E+15 0.362359E+14
      917.24  0.120528E+15 0.522277E+15 0.389157E+14
      917.26  0.116210E+15 0.503524E+15 0.374862E+14
      917.28  0.101599E+15 0.440184E+15 0.327426E+14
      917.30  0.832772E+14 0.360775E+15 0.268128E+14
      917.32  0.662230E+14 0.286870E+15 0.213018E+14
      917.33  0.523048E+14 0.226561E+15 0.168090E+14
      917.35  0.415600E+14 0.180005E+15 0.133435E+14
      917.37  0.334135E+14 0.144709E+15 0.107178E+14
      917.39  0.272354E+14 0.117943E+15 0.872791E+13
      917.41  0.225087E+14 0.974669E+14 0.720642E+13
      917.43  0.188474E+14 0.816063E+14 0.602853E+13
      917.45  0.159726E+14 0.691533E+14 0.510418E+13
      917.47  0.136846E+14 0.592427E+14 0.436891E+13
      917.49  0.118400E+14 0.512532E+14 0.377646E+13
      917.51  0.103348E+14 0.447342E+14 0.329328E+13
      917.53  0.909296E+13 0.393557E+14 0.289481E+13
      917.54  0.805776E+13 0.348725E+14 0.256283E+13
      917.56  0.718673E+13 0.311004E+14 0.228364E+13
      917.58  0.644754E+13 0.278994E+14 0.204682E+13
      917.60  0.581527E+13 0.251615E+14 0.184437E+13
      917.62  0.527056E+13 0.228029E+14 0.167003E+13
      917.64  0.479816E+13 0.207574E+14 0.151890E+13
      917.66  0.438595E+13 0.189727E+14 0.138711E+13
      917.68  0.402424E+13 0.174066E+14 0.127151E+13
      917.70  0.370519E+13 0.160253E+14 0.116959E+13
      917.72  0.342239E+13 0.148010E+14 0.107930E+13
      917.74  0.317059E+13 0.137110E+14 0.998948E+12
      917.75  0.294547E+13 0.127365E+14 0.927141E+12
      917.77  0.274340E+13 0.118618E+14 0.862718E+12
      917.79  0.256137E+13 0.110738E+14 0.804710E+12
      917.81  0.239681E+13 0.103616E+14 0.752298E+12
      917.83  0.224759E+13 0.971572E+13 0.704791E+12
      917.85  0.211185E+13 0.912824E+13 0.661598E+12
      917.87  0.198803E+13 0.859237E+13 0.622216E+12
      917.89  0.187477E+13 0.810225E+13 0.586213E+12
      917.91  0.177093E+13 0.765284E+13 0.553215E+12
      917.93  0.167547E+13 0.723978E+13 0.522899E+12
      917.95  0.158753E+13 0.685925E+13 0.494983E+12
      917.96  0.150634E+13 0.650795E+13 0.469222E+12
      917.98  0.143123E+13 0.618296E+13 0.445400E+12
      918.00  0.136161E+13 0.588172E+13 0.423330E+12
      918.02  0.129695E+13 0.560198E+13 0.402844E+12
      918.04  0.123680E+13 0.534176E+13 0.383795E+12
      918.06  0.118075E+13 0.509927E+13 0.366052E+12
      918.08  0.112843E+13 0.487294E+13 0.349499E+12
      918.10  0.107952E+13 0.466138E+13 0.334032E+12
      918.12  0.103374E+13 0.446333E+13 0.319560E+12
      918.14  0.990813E+12 0.427766E+13 0.305998E+12
      918.16  0.950517E+12 0.410337E+13 0.293273E+12
      918.17  0.912638E+12 0.393954E+13 0.281317E+12
      918.19  0.876988E+12 0.378535E+13 0.270069E+12
      918.21  0.843395E+12 0.364007E+13 0.259476E+12
      918.23  0.811705E+12 0.350302E+13 0.249487E+12
      918.25  0.781775E+12 0.337359E+13 0.240058E+12
      918.27  0.753478E+12 0.325122E+13 0.231147E+12
      918.29  0.726698E+12 0.313542E+13 0.222718E+12
      918.31  0.701328E+12 0.302572E+13 0.214737E+12
      918.33  0.677270E+12 0.292170E+13 0.207172E+12
      918.35  0.654437E+12 0.282298E+13 0.199995E+12
      918.37  0.632745E+12 0.272920E+13 0.193180E+12
      918.38  0.612121E+12 0.264003E+13 0.186704E+12
      918.40  0.592494E+12 0.255518E+13 0.180544E+12
      918.42  0.573803E+12 0.247438E+13 0.174681E+12
      918.44  0.555988E+12 0.239737E+13 0.169095E+12
      918.46  0.538996E+12 0.232392E+13 0.163769E+12
      918.48  0.522776E+12 0.225381E+13 0.158688E+12
      918.50  0.507282E+12 0.218684E+13 0.153837E+12
      918.52  0.492472E+12 0.212283E+13 0.149202E+12
      918.54  0.478306E+12 0.206161E+13 0.144770E+12
      918.56  0.464748E+12 0.200301E+13 0.140531E+12
      918.58  0.451762E+12 0.194689E+13 0.136472E+12
      918.59  0.439317E+12 0.189311E+13 0.132585E+12
      918.61  0.427383E+12 0.184154E+13 0.128859E+12
      918.63  0.415933E+12 0.179206E+13 0.125285E+12
      918.65  0.404941E+12 0.174457E+13 0.121857E+12
      918.67  0.394383E+12 0.169895E+13 0.118565E+12
      918.69  0.384236E+12 0.165510E+13 0.115402E+12
      918.71  0.374479E+12 0.161295E+13 0.112363E+12
      918.73  0.365092E+12 0.157240E+13 0.109441E+12
      918.75  0.356057E+12 0.153336E+13 0.106629E+12
      918.77  0.347357E+12 0.149578E+13 0.103923E+12
      918.79  0.338974E+12 0.145957E+13 0.101317E+12
      918.80  0.330895E+12 0.142467E+13 0.988058E+11
      918.82  0.323103E+12 0.139101E+13 0.963857E+11
      918.84  0.315587E+12 0.135854E+13 0.940521E+11
      918.86  0.308332E+12 0.132721E+13 0.918008E+11
      918.88  0.301327E+12 0.129696E+13 0.896281E+11
      918.90  0.294561E+12 0.126773E+13 0.875304E+11
      919.00  0.262623E+12 0.112982E+13 0.776431E+11
      919.41  0.173654E+12 0.745798E+12 0.502612E+11
      919.83  0.123610E+12 0.529972E+12 0.350181E+11
      920.24  0.926651E+11 0.396620E+12 0.256893E+11
      920.66  0.721846E+11 0.308435E+12 0.195788E+11
      921.07  0.579189E+11 0.247059E+12 0.153664E+11
      921.48  0.475777E+11 0.202602E+12 0.123444E+11
      921.90  0.398373E+11 0.169352E+12 0.101058E+11
      922.31  0.338894E+11 0.143822E+12 0.840348E+10
      922.73  0.292177E+11 0.123784E+12 0.708029E+10
      923.14  0.254793E+11 0.107762E+12 0.603251E+10
      923.56  0.224396E+11 0.947440E+11 0.518948E+10
      923.97  0.199336E+11 0.840196E+11 0.450175E+10
      924.38  0.178423E+11 0.750764E+11 0.393388E+10
      924.80  0.160782E+11 0.675381E+11 0.345994E+10
      925.21  0.145759E+11 0.611231E+11 0.306061E+10
      925.63  0.132856E+11 0.556169E+11 0.272128E+10
      926.00  0.122710E+11 0.512901E+11 0.245717E+10
      926.04  0.121687E+11 0.508544E+11 0.243071E+10
      926.45  0.111953E+11 0.467062E+11 0.218017E+10
      926.87  0.103414E+11 0.430700E+11 0.196279E+10
      927.28  0.958805E+10 0.398641E+11 0.177310E+10
      927.70  0.891988E+10 0.370225E+11 0.160668E+10
      928.11  0.832434E+10 0.344915E+11 0.145999E+10
      928.53  0.779113E+10 0.322269E+11 0.133011E+10
      928.94  0.731174E+10 0.301921E+11 0.121463E+10
      929.35  0.687906E+10 0.283567E+11 0.111158E+10
      929.77  0.648712E+10 0.266952E+11 0.101928E+10
      930.18  0.613088E+10 0.251859E+11 0.936342E+09
      930.60  0.580608E+10 0.238107E+11 0.861591E+09
      931.01  0.550905E+10 0.225537E+11 0.794023E+09
      931.42  0.523667E+10 0.214018E+11 0.732784E+09
      931.84  0.498625E+10 0.203433E+11 0.677142E+09
      932.25  0.475543E+10 0.193682E+11 0.626466E+09
      932.67  0.454220E+10 0.184679E+11 0.580211E+09
      933.08  0.434477E+10 0.176348E+11 0.537903E+09
      933.49  0.416161E+10 0.168623E+11 0.499129E+09
      933.91  0.399133E+10 0.161445E+11 0.463530E+09
      934.32  0.383273E+10 0.154762E+11 0.430788E+09
      934.74  0.368476E+10 0.148531E+11 0.400624E+09
      935.15  0.354646E+10 0.142709E+11 0.372794E+09
      935.57  0.341699E+10 0.137262E+11 0.347078E+09
      935.98  0.329561E+10 0.132158E+11 0.323284E+09
      936.00  0.328988E+10 0.131917E+11 0.322170E+09
      936.39  0.318163E+10 0.127367E+11 0.301240E+09
      936.81  0.307447E+10 0.122864E+11 0.280792E+09
      937.22  0.297356E+10 0.118626E+11 0.261803E+09
      937.64  0.287843E+10 0.114632E+11 0.244150E+09
      938.05  0.278863E+10 0.110864E+11 0.227722E+09
      938.46  0.270377E+10 0.107304E+11 0.212420E+09
      938.88  0.262348E+10 0.103938E+11 0.198154E+09
      939.29  0.254743E+10 0.100750E+11 0.184842E+09
      939.71  0.247533E+10 0.977283E+10 0.172411E+09
      940.12  0.240689E+10 0.948616E+10 0.160795E+09
      940.54  0.234187E+10 0.921390E+10 0.149933E+09
      940.95  0.228004E+10 0.895507E+10 0.139770E+09
      941.36  0.222120E+10 0.870880E+10 0.130255E+09
      941.78  0.216514E+10 0.847426E+10 0.121343E+09
      942.19  0.211169E+10 0.825070E+10 0.112992E+09
      942.61  0.206069E+10 0.803744E+10 0.105162E+09
      943.02  0.201199E+10 0.783384E+10 0.978201E+08
      943.43  0.196544E+10 0.763931E+10 0.909325E+08
      943.85  0.192093E+10 0.745330E+10 0.844698E+08
      944.26  0.187833E+10 0.727532E+10 0.784045E+08
      944.68  0.183754E+10 0.710491E+10 0.727116E+08
      945.09  0.179844E+10 0.694161E+10 0.673676E+08
      945.51  0.176095E+10 0.678505E+10 0.623510E+08
      945.92  0.172497E+10 0.663484E+10 0.576421E+08
      946.00  0.171812E+10 0.660624E+10 0.567575E+08
      946.33  0.169043E+10 0.649064E+10 0.532223E+08
      946.75  0.165725E+10 0.635212E+10 0.490746E+08
      947.16  0.162535E+10 0.621898E+10 0.451832E+08
      947.58  0.159468E+10 0.609094E+10 0.415333E+08
      947.99  0.156516E+10 0.596775E+10 0.381114E+08
      948.40  0.153674E+10 0.584914E+10 0.349047E+08
      948.82  0.150937E+10 0.573489E+10 0.319013E+08
      949.23  0.148298E+10 0.562479E+10 0.290903E+08
      949.65  0.145755E+10 0.551863E+10 0.264614E+08
      950.06  0.143301E+10 0.541622E+10 0.240049E+08
      950.47  0.140933E+10 0.531738E+10 0.217120E+08
      950.89  0.138647E+10 0.522195E+10 0.195742E+08
      951.30  0.136439E+10 0.512977E+10 0.175837E+08
      951.72  0.134305E+10 0.504068E+10 0.157331E+08
      952.13  0.132243E+10 0.495456E+10 0.140156E+08
      952.55  0.130248E+10 0.487125E+10 0.124248E+08
      952.96  0.128319E+10 0.479065E+10 0.109545E+08
      953.37  0.126451E+10 0.471263E+10 0.959919E+07
      953.79  0.124643E+10 0.463709E+10 0.835344E+07
      954.20  0.122893E+10 0.456390E+10 0.721226E+07
      954.62  0.121197E+10 0.449299E+10 0.617095E+07
      955.03  0.119553E+10 0.442424E+10 0.522506E+07
      955.44  0.117959E+10 0.435758E+10 0.437044E+07
      955.86  0.116414E+10 0.429291E+10 0.360314E+07
      956.00  0.115897E+10 0.427127E+10 0.336047E+07
      956.27  0.114915E+10 0.423016E+10 0.291948E+07
      956.69  0.113461E+10 0.416925E+10 0.231594E+07
      957.10  0.112049E+10 0.411011E+10 0.178924E+07
      957.52  0.110679E+10 0.405267E+10 0.133627E+07
      957.93  0.109348E+10 0.399686E+10 0.954099E+06
      958.34  0.108055E+10 0.394262E+10 0.639946E+06
      958.76  0.106799E+10 0.388989E+10 0.391193E+06
      959.17  0.105578E+10 0.383861E+10 0.205362E+06
      959.59  0.104391E+10 0.378874E+10 0.801120E+05
      960.00  0.103237E+10 0.374021E+10 0.132249E+05
      966.00  0.895707E+09 0.316247E+10 0.450040E+07
      976.00  0.753096E+09 0.254605E+10 0.279151E+08
      986.00  0.670432E+09 0.216917E+10 0.649185E+08
      996.00  0.621936E+09 0.192469E+10 0.113350E+09
     1006.00  0.595107E+09 0.176047E+10 0.173414E+09
     1016.00  0.583320E+09 0.164848E+10 0.246426E+09
     1026.00  0.582856E+09 0.157250E+10 0.334389E+09
     1036.00  0.591569E+09 0.152258E+10 0.439865E+09
     1046.00  0.608229E+09 0.149233E+10 0.565956E+09
     1056.00  0.632186E+09 0.147748E+10 0.716337E+09
     1066.00  0.663174E+09 0.147511E+10 0.895329E+09
     1076.00  0.701208E+09 0.148314E+10 0.110799E+10
     1086.00  0.746522E+09 0.150008E+10 0.136021E+10
     1096.00  0.799531E+09 0.152481E+10 0.165889E+10
     1106.00  0.860817E+09 0.155650E+10 0.201203E+10
     1116.00  0.931120E+09 0.159449E+10 0.242897E+10
     1126.00  0.101133E+10 0.163825E+10 0.292055E+10
     1136.00  0.110251E+10 0.168735E+10 0.349935E+10
     1146.00  0.120588E+10 0.174136E+10 0.417997E+10
     1156.00  0.132286E+10 0.179992E+10 0.497932E+10
     1166.00  0.145506E+10 0.186264E+10 0.591696E+10
     1176.00  0.160431E+10 0.192909E+10 0.701544E+10
     1186.00  0.177266E+10 0.199882E+10 0.830075E+10
     1196.00  0.196243E+10 0.207128E+10 0.980270E+10
     1206.00  0.217620E+10 0.214584E+10 0.115554E+11
     1216.00  0.241682E+10 0.222175E+10 0.135977E+11
     1226.00  0.268742E+10 0.229809E+10 0.159734E+11
     1236.00  0.299142E+10 0.237381E+10 0.187322E+11
     1246.00  0.333249E+10 0.244762E+10 0.219292E+11
     1256.00  0.371452E+10 0.251803E+10 0.256252E+11
     1266.00  0.414152E+10 0.258332E+10 0.298866E+11
     1276.00  0.461756E+10 0.264148E+10 0.347842E+11
     1286.00  0.514655E+10 0.269024E+10 0.403924E+11
     1296.00  0.573206E+10 0.272708E+10 0.467864E+11
     1306.00  0.637701E+10 0.274926E+10 0.540394E+11
     1316.00  0.708331E+10 0.275390E+10 0.622179E+11
     1326.00  0.785144E+10 0.273804E+10 0.713765E+11
     1336.00  0.867993E+10 0.269887E+10 0.815502E+11
     1346.00  0.956483E+10 0.263386E+10 0.927471E+11
     1356.00  0.104993E+11 0.254108E+10 0.104939E+12
     1366.00  0.114730E+11 0.241942E+10 0.118053E+12
     1376.00  0.124723E+11 0.226895E+10 0.131968E+12
     1386.00  0.134801E+11 0.209116E+10 0.146505E+12
     1396.00  0.144764E+11 0.188913E+10 0.161435E+12
     1406.00  0.154392E+11 0.166764E+10 0.176483E+12
     1416.00  0.163459E+11 0.143300E+10 0.191343E+12
     1426.00  0.171748E+11 0.119282E+10 0.205693E+12
     1436.00  0.179067E+11 0.955510E+09 0.219222E+12
     1446.00  0.185262E+11 0.729727E+09 0.231647E+12
     1456.00  0.190229E+11 0.523777E+09 0.242739E+12
     1466.00  0.193919E+11 0.345063E+09 0.252327E+12
     1476.00  0.196336E+11 0.199662E+09 0.260315E+12
     1486.00  0.197531E+11 0.920766E+08 0.266671E+12
     1496.00  0.197595E+11 0.251561E+08 0.271429E+12
     1506.00  0.196645E+11 0.183757E+06 0.274668E+12
     1516.00  0.194812E+11 0.170723E+08 0.276508E+12
     1526.00  0.192237E+11 0.746262E+08 0.277090E+12
     1536.00  0.189053E+11 0.170825E+09 0.276565E+12
     1546.00  0.185390E+11 0.303091E+09 0.275089E+12
     1556.00  0.181361E+11 0.468530E+09 0.272809E+12
     1566.00  0.177069E+11 0.664113E+09 0.269863E+12
     1576.00  0.172599E+11 0.886825E+09 0.266375E+12
     1586.00  0.168024E+11 0.113376E+10 0.262454E+12
     1596.00  0.163401E+11 0.140219E+10 0.258193E+12
     1606.00  0.158779E+11 0.168959E+10 0.253674E+12
     1616.00  0.154193E+11 0.199366E+10 0.248962E+12
     1626.00  0.149672E+11 0.231233E+10 0.244114E+12
     1636.00  0.145237E+11 0.264373E+10 0.239173E+12
     1646.00  0.140903E+11 0.298620E+10 0.234177E+12
     1656.00  0.136680E+11 0.333824E+10 0.229155E+12
     1666.00  0.132574E+11 0.369852E+10 0.224129E+12
     1676.00  0.128589E+11 0.406584E+10 0.219118E+12
     1686.00  0.124727E+11 0.443912E+10 0.214136E+12
     1696.00  0.120985E+11 0.481738E+10 0.209192E+12
     1706.00  0.117364E+11 0.519973E+10 0.204294E+12
     1716.00  0.113859E+11 0.558534E+10 0.199449E+12
     1726.00  0.110468E+11 0.597346E+10 0.194660E+12
     1736.00  0.107186E+11 0.636340E+10 0.189930E+12
     1746.00  0.104010E+11 0.675449E+10 0.185261E+12
     1756.00  0.100935E+11 0.714613E+10 0.180653E+12
     1766.00  0.979567E+10 0.753772E+10 0.176108E+12
     1776.00  0.950714E+10 0.792871E+10 0.171625E+12
     1786.00  0.922747E+10 0.831857E+10 0.167203E+12
     1796.00  0.895626E+10 0.870680E+10 0.162844E+12
     1806.00  0.869314E+10 0.909291E+10 0.158545E+12
     1816.00  0.843775E+10 0.947644E+10 0.154307E+12
     1826.00  0.818974E+10 0.985695E+10 0.150130E+12
     1836.00  0.794880E+10 0.102340E+11 0.146012E+12
     1846.00  0.771461E+10 0.106072E+11 0.141953E+12
     1856.00  0.748690E+10 0.109761E+11 0.137953E+12
     1866.00  0.726540E+10 0.113404E+11 0.134012E+12
     1876.00  0.704986E+10 0.116996E+11 0.130129E+12
     1886.00  0.684005E+10 0.120535E+11 0.126304E+12
     1896.00  0.663574E+10 0.124017E+11 0.122537E+12
     1906.00  0.643675E+10 0.127439E+11 0.118829E+12
     1916.00  0.624287E+10 0.130797E+11 0.115179E+12
     1926.00  0.605395E+10 0.134089E+11 0.111587E+12
     1936.00  0.586981E+10 0.137313E+11 0.108053E+12
     1946.00  0.569030E+10 0.140464E+11 0.104578E+12
     1956.00  0.551528E+10 0.143541E+11 0.101163E+12
     1966.00  0.534462E+10 0.146542E+11 0.978057E+11
     1976.00  0.517818E+10 0.149465E+11 0.945083E+11
     1986.00  0.501586E+10 0.152306E+11 0.912705E+11
     1996.00  0.485754E+10 0.155066E+11 0.880927E+11
     2006.00  0.470313E+10 0.157740E+11 0.849752E+11
     2016.00  0.455252E+10 0.160330E+11 0.819182E+11
     2026.00  0.440562E+10 0.162832E+11 0.789221E+11
     2036.00  0.426236E+10 0.165245E+11 0.759871E+11
     2046.00  0.412264E+10 0.167569E+11 0.731135E+11
     2056.00  0.398639E+10 0.169803E+11 0.703014E+11
     2066.00  0.385354E+10 0.171945E+11 0.675511E+11
     2076.00  0.372401E+10 0.173995E+11 0.648626E+11
     2086.00  0.359774E+10 0.175953E+11 0.622361E+11
     2096.00  0.347466E+10 0.177817E+11 0.596716E+11
     2106.00  0.335471E+10 0.179589E+11 0.571693E+11
     2116.00  0.323783E+10 0.181267E+11 0.547290E+11
     2126.00  0.312397E+10 0.182851E+11 0.523508E+11
     2136.00  0.301306E+10 0.184342E+11 0.500345E+11
     2146.00  0.290506E+10 0.185740E+11 0.477799E+11
     2156.00  0.279990E+10 0.187046E+11 0.455869E+11
     2166.00  0.269753E+10 0.188258E+11 0.434553E+11
     2176.00  0.259791E+10 0.189379E+11 0.413847E+11
     2186.00  0.250099E+10 0.190408E+11 0.393748E+11
     2196.00  0.240670E+10 0.191347E+11 0.374253E+11
     2206.00  0.231502E+10 0.192196E+11 0.355356E+11
     2216.00  0.222588E+10 0.192955E+11 0.337054E+11
     2226.00  0.213924E+10 0.193627E+11 0.319341E+11
     2236.00  0.205506E+10 0.194211E+11 0.302213E+11
     2246.00  0.197329E+10 0.194710E+11 0.285662E+11
     2256.00  0.189388E+10 0.195123E+11 0.269684E+11
     2266.00  0.181679E+10 0.195453E+11 0.254270E+11
     2276.00  0.174198E+10 0.195700E+11 0.239416E+11
     2286.00  0.166940E+10 0.195865E+11 0.225112E+11
     2296.00  0.159901E+10 0.195951E+11 0.211352E+11
     2306.00  0.153077E+10 0.195959E+11 0.198128E+11
     2316.00  0.146463E+10 0.195889E+11 0.185432E+11
     2326.00  0.140055E+10 0.195744E+11 0.173255E+11
     2336.00  0.133850E+10 0.195525E+11 0.161589E+11
     2346.00  0.127843E+10 0.195233E+11 0.150425E+11
     2356.00  0.122030E+10 0.194871E+11 0.139754E+11
     2366.00  0.116407E+10 0.194439E+11 0.129567E+11
     2376.00  0.110970E+10 0.193940E+11 0.119855E+11
     2386.00  0.105715E+10 0.193375E+11 0.110608E+11
     2396.00  0.100639E+10 0.192745E+11 0.101816E+11
     2406.00  0.957366E+09 0.192053E+11 0.934701E+10
     2416.00  0.910051E+09 0.191300E+11 0.855599E+10
     2426.00  0.864403E+09 0.190488E+11 0.780754E+10
     2436.00  0.820386E+09 0.189618E+11 0.710068E+10
     2446.00  0.777963E+09 0.188692E+11 0.643440E+10
     2456.00  0.737097E+09 0.187713E+11 0.580767E+10
     2466.00  0.697753E+09 0.186681E+11 0.521950E+10
     2476.00  0.659893E+09 0.185599E+11 0.466885E+10
     2486.00  0.623483E+09 0.184467E+11 0.415471E+10
     2496.00  0.588487E+09 0.183289E+11 0.367605E+10
     2506.00  0.554872E+09 0.182065E+11 0.323188E+10
     2516.00  0.522603E+09 0.180797E+11 0.282116E+10
     2526.00  0.491646E+09 0.179487E+11 0.244290E+10
     2536.00  0.461969E+09 0.178137E+11 0.209608E+10
     2546.00  0.433538E+09 0.176748E+11 0.177972E+10
     2556.00  0.406322E+09 0.175321E+11 0.149281E+10
     2566.00  0.380288E+09 0.173859E+11 0.123438E+10
     2576.00  0.355406E+09 0.172363E+11 0.100346E+10
     2586.00  0.331643E+09 0.170835E+11 0.799074E+09
     2596.00  0.308971E+09 0.169275E+11 0.620272E+09
     2606.00  0.287358E+09 0.167687E+11 0.466108E+09
     2616.00  0.266776E+09 0.166070E+11 0.335650E+09
     2626.00  0.247195E+09 0.164428E+11 0.227979E+09
     2636.00  0.228587E+09 0.162760E+11 0.142185E+09
     2646.00  0.210923E+09 0.161070E+11 0.773737E+08
     2656.00  0.194177E+09 0.159357E+11 0.326640E+08
     2666.00  0.178321E+09 0.157624E+11 0.718839E+07
     2676.00  0.163328E+09 0.155872E+11 0.937679E+05
     2686.00  0.149172E+09 0.154102E+11 0.105419E+08
     2696.00  0.135827E+09 0.152316E+11 0.377097E+08
     2706.00  0.123269E+09 0.150515E+11 0.807894E+08
     2716.00  0.111472E+09 0.148700E+11 0.138989E+09
     2726.00  0.100412E+09 0.146873E+11 0.211533E+09
     2736.00  0.900649E+08 0.145035E+11 0.297660E+09
     2746.00  0.804077E+08 0.143187E+11 0.396628E+09
     2756.00  0.714172E+08 0.141329E+11 0.507709E+09
     2766.00  0.630710E+08 0.139465E+11 0.630192E+09
     2776.00  0.553470E+08 0.137593E+11 0.763385E+09
     2786.00  0.482235E+08 0.135717E+11 0.906609E+09
     2796.00  0.416796E+08 0.133836E+11 0.105920E+10
     2806.00  0.356944E+08 0.131951E+11 0.122053E+10
     2816.00  0.302477E+08 0.130065E+11 0.138996E+10
     2826.00  0.253197E+08 0.128177E+11 0.156687E+10
     2836.00  0.208910E+08 0.126289E+11 0.175069E+10
     2846.00  0.169426E+08 0.124402E+11 0.194084E+10
     2856.00  0.134560E+08 0.122516E+11 0.213674E+10
     2866.00  0.104131E+08 0.120633E+11 0.233787E+10
     2876.00  0.779616E+07 0.118753E+11 0.254370E+10
     2886.00  0.558796E+07 0.116877E+11 0.275371E+10
     2896.00  0.377161E+07 0.115006E+11 0.296741E+10
     2906.00  0.233065E+07 0.113141E+11 0.318433E+10
     2916.00  0.124900E+07 0.111283E+11 0.340400E+10
     2926.00  0.510991E+06 0.109431E+11 0.362598E+10
     2936.00  0.101349E+06 0.107588E+11 0.384984E+10
     2946.00  0.517128E+04 0.105753E+11 0.407517E+10
     2956.00  0.207941E+06 0.103928E+11 0.430156E+10
     2966.00  0.695513E+06 0.102112E+11 0.452863E+10
     2976.00  0.145412E+07 0.100307E+11 0.475601E+10
     2986.00  0.247034E+07 0.985136E+10 0.498335E+10
     2996.00  0.373112E+07 0.967314E+10 0.521031E+10
     3006.00  0.522378E+07 0.949615E+10 0.543657E+10
     3016.00  0.693596E+07 0.932043E+10 0.566180E+10
     3026.00  0.885565E+07 0.914603E+10 0.588571E+10
     3036.00  0.109712E+08 0.897301E+10 0.610803E+10
     3046.00  0.132712E+08 0.880140E+10 0.632847E+10
     3056.00  0.157448E+08 0.863125E+10 0.654678E+10
     3066.00  0.183812E+08 0.846260E+10 0.676271E+10
     3076.00  0.211700E+08 0.829550E+10 0.697603E+10
     3086.00  0.241012E+08 0.812997E+10 0.718653E+10
     3096.00  0.271650E+08 0.796605E+10 0.739398E+10
     3106.00  0.303520E+08 0.780378E+10 0.759820E+10
     3116.00  0.336531E+08 0.764318E+10 0.779900E+10
     3126.00  0.370593E+08 0.748428E+10 0.799620E+10
     3136.00  0.405621E+08 0.732712E+10 0.818964E+10
     3146.00  0.441531E+08 0.717172E+10 0.837916E+10
     3156.00  0.478244E+08 0.701809E+10 0.856463E+10
     3166.00  0.515681E+08 0.686627E+10 0.874591E+10
     3176.00  0.553768E+08 0.671627E+10 0.892287E+10
     3186.00  0.592432E+08 0.656811E+10 0.909540E+10
     3196.00  0.631604E+08 0.642181E+10 0.926341E+10
     3206.00  0.671216E+08 0.627739E+10 0.942679E+10
     3216.00  0.711203E+08 0.613485E+10 0.958546E+10
     3226.00  0.751502E+08 0.599422E+10 0.973933E+10
     3236.00  0.792052E+08 0.585550E+10 0.988835E+10
     3246.00  0.832797E+08 0.571870E+10 0.100324E+11
     3256.00  0.873680E+08 0.558383E+10 0.101715E+11
     3266.00  0.914648E+08 0.545090E+10 0.103056E+11
     3276.00  0.955648E+08 0.531990E+10 0.104346E+11
     3286.00  0.996631E+08 0.519086E+10 0.105586E+11
     3296.00  0.103755E+09 0.506377E+10 0.106773E+11
     3306.00  0.107836E+09 0.493863E+10 0.107910E+11
     3316.00  0.111902E+09 0.481544E+10 0.108995E+11
     3326.00  0.115948E+09 0.469421E+10 0.110028E+11
     3336.00  0.119971E+09 0.457493E+10 0.111010E+11
     3346.00  0.123966E+09 0.445760E+10 0.111940E+11
     3356.00  0.127931E+09 0.434221E+10 0.112818E+11
     3366.00  0.131861E+09 0.422878E+10 0.113645E+11
     3376.00  0.135754E+09 0.411728E+10 0.114421E+11
     3386.00  0.139606E+09 0.400771E+10 0.115146E+11
     3396.00  0.143415E+09 0.390006E+10 0.115820E+11
     3406.00  0.147177E+09 0.379434E+10 0.116444E+11
     3416.00  0.150890E+09 0.369052E+10 0.117018E+11
     3426.00  0.154551E+09 0.358860E+10 0.117542E+11
     3436.00  0.158158E+09 0.348858E+10 0.118017E+11
     3446.00  0.161709E+09 0.339043E+10 0.118443E+11
     3456.00  0.165202E+09 0.329415E+10 0.118822E+11
     3466.00  0.168634E+09 0.319972E+10 0.119153E+11
     3476.00  0.172004E+09 0.310714E+10 0.119436E+11
     3486.00  0.175311E+09 0.301639E+10 0.119674E+11
     3496.00  0.178552E+09 0.292746E+10 0.119866E+11
     3506.00  0.181726E+09 0.284033E+10 0.120012E+11
     3516.00  0.184832E+09 0.275498E+10 0.120114E+11
     3526.00  0.187868E+09 0.267140E+10 0.120172E+11
     3536.00  0.190833E+09 0.258958E+10 0.120188E+11
     3546.00  0.193727E+09 0.250950E+10 0.120161E+11
     3556.00  0.196548E+09 0.243114E+10 0.120092E+11
     3566.00  0.199296E+09 0.235449E+10 0.119983E+11
     3576.00  0.201969E+09 0.227952E+10 0.119833E+11
     3586.00  0.204567E+09 0.220622E+10 0.119645E+11
     3596.00  0.207090E+09 0.213457E+10 0.119418E+11
     3606.00  0.209537E+09 0.206455E+10 0.119153E+11
     3616.00  0.211907E+09 0.199615E+10 0.118852E+11
     3626.00  0.214200E+09 0.192934E+10 0.118515E+11
     3636.00  0.216416E+09 0.186411E+10 0.118143E+11
     3646.00  0.218555E+09 0.180043E+10 0.117737E+11
     3656.00  0.220616E+09 0.173829E+10 0.117297E+11
     3666.00  0.222600E+09 0.167767E+10 0.116825E+11
     3676.00  0.224507E+09 0.161854E+10 0.116321E+11
     3686.00  0.226336E+09 0.156088E+10 0.115786E+11
     3696.00  0.228087E+09 0.150468E+10 0.115222E+11
     3706.00  0.229762E+09 0.144991E+10 0.114629E+11
     3716.00  0.231360E+09 0.139656E+10 0.114007E+11
     3726.00  0.232881E+09 0.134460E+10 0.113358E+11
     3736.00  0.234326E+09 0.129401E+10 0.112683E+11
     3746.00  0.235695E+09 0.124477E+10 0.111982E+11
     3756.00  0.236988E+09 0.119686E+10 0.111256E+11
     3766.00  0.238207E+09 0.115027E+10 0.110507E+11
     3776.00  0.239351E+09 0.110496E+10 0.109735E+11
     3786.00  0.240422E+09 0.106091E+10 0.108941E+11
     3796.00  0.241419E+09 0.101812E+10 0.108125E+11
     3806.00  0.242344E+09 0.976547E+09 0.107289E+11
     3816.00  0.243197E+09 0.936180E+09 0.106433E+11
     3826.00  0.243979E+09 0.896996E+09 0.105559E+11
     3836.00  0.244690E+09 0.858975E+09 0.104666E+11
     3846.00  0.245332E+09 0.822095E+09 0.103757E+11
     3856.00  0.245905E+09 0.786337E+09 0.102831E+11
     3866.00  0.246410E+09 0.751679E+09 0.101889E+11
     3876.00  0.246847E+09 0.718101E+09 0.100933E+11
     3886.00  0.247219E+09 0.685582E+09 0.999625E+10
     3896.00  0.247524E+09 0.654102E+09 0.989789E+10
     3906.00  0.247766E+09 0.623642E+09 0.979829E+10
     3916.00  0.247944E+09 0.594179E+09 0.969751E+10
     3926.00  0.248059E+09 0.565696E+09 0.959562E+10
     3936.00  0.248113E+09 0.538171E+09 0.949271E+10
     3946.00  0.248106E+09 0.511586E+09 0.938883E+10
     3956.00  0.248039E+09 0.485920E+09 0.928406E+10
     3966.00  0.247914E+09 0.461154E+09 0.917847E+10
     3976.00  0.247731E+09 0.437269E+09 0.907212E+10
     3986.00  0.247491E+09 0.414246E+09 0.896508E+10
     3996.00  0.247196E+09 0.392066E+09 0.885742E+10
     4006.00  0.246846E+09 0.370710E+09 0.874919E+10
     4016.00  0.246443E+09 0.350160E+09 0.864046E+10
     4026.00  0.245988E+09 0.330398E+09 0.853129E+10
     4036.00  0.245481E+09 0.311405E+09 0.842174E+10
     4046.00  0.244923E+09 0.293163E+09 0.831187E+10
     4056.00  0.244317E+09 0.275655E+09 0.820174E+10
     4066.00  0.243662E+09 0.258862E+09 0.809139E+10
     4076.00  0.242961E+09 0.242769E+09 0.798089E+10
     4086.00  0.242213E+09 0.227357E+09 0.787029E+10
     4096.00  0.241420E+09 0.212610E+09 0.775964E+10
     4106.00  0.240584E+09 0.198511E+09 0.764899E+10
     4116.00  0.239705E+09 0.185043E+09 0.753839E+10
     4126.00  0.238784E+09 0.172190E+09 0.742789E+10
     4136.00  0.237822E+09 0.159937E+09 0.731753E+10
     4146.00  0.236821E+09 0.148267E+09 0.720737E+10
     4156.00  0.235781E+09 0.137164E+09 0.709744E+10
     4166.00  0.234704E+09 0.126614E+09 0.698778E+10
     4176.00  0.233591E+09 0.116602E+09 0.687844E+10
     4186.00  0.232442E+09 0.107111E+09 0.676947E+10
     4196.00  0.231259E+09 0.981285E+08 0.666089E+10
     4206.00  0.230043E+09 0.896388E+08 0.655275E+10
     4216.00  0.228794E+09 0.816280E+08 0.644509E+10
     4226.00  0.227514E+09 0.740822E+08 0.633793E+10
     4236.00  0.226205E+09 0.669875E+08 0.623131E+10
     4246.00  0.224865E+09 0.603303E+08 0.612528E+10
     4256.00  0.223498E+09 0.540974E+08 0.601985E+10
     4266.00  0.222104E+09 0.482756E+08 0.591506E+10
     4276.00  0.220683E+09 0.428522E+08 0.581094E+10
     4286.00  0.219237E+09 0.378144E+08 0.570752E+10
     4296.00  0.217766E+09 0.331499E+08 0.560482E+10
     4306.00  0.216273E+09 0.288464E+08 0.550287E+10
     4316.00  0.214757E+09 0.248921E+08 0.540169E+10
     4326.00  0.213219E+09 0.212752E+08 0.530132E+10
     4336.00  0.211661E+09 0.179842E+08 0.520177E+10
     4346.00  0.210083E+09 0.150078E+08 0.510307E+10
     4356.00  0.208486E+09 0.123349E+08 0.500523E+10
     4366.00  0.206872E+09 0.995482E+07 0.490828E+10
     4376.00  0.205240E+09 0.785680E+07 0.481223E+10
     4386.00  0.203592E+09 0.603047E+07 0.471711E+10
     4396.00  0.201929E+09 0.446565E+07 0.462292E+10
     4406.00  0.200251E+09 0.315236E+07 0.452969E+10
     4416.00  0.198560E+09 0.208086E+07 0.443743E+10
     4426.00  0.196856E+09 0.124159E+07 0.434616E+10
     4436.00  0.195139E+09 0.625213E+06 0.425588E+10
     4446.00  0.193411E+09 0.222597E+06 0.416661E+10
     4456.00  0.191673E+09 0.248159E+05 0.407837E+10
     4466.00  0.189925E+09 0.231463E+05 0.399115E+10
     4476.00  0.188168E+09 0.209066E+06 0.390498E+10
     4486.00  0.186402E+09 0.574252E+06 0.381986E+10
     4511.00  0.181956E+09 0.221865E+07 0.361172E+10
     4536.00  0.177473E+09 0.481152E+07 0.341031E+10
     4561.00  0.172964E+09 0.823853E+07 0.321571E+10
     4586.00  0.168438E+09 0.123925E+08 0.302797E+10
     4611.00  0.163904E+09 0.171733E+08 0.284713E+10
     4636.00  0.159371E+09 0.224873E+08 0.267319E+10
     4661.00  0.154847E+09 0.282475E+08 0.250613E+10
     4686.00  0.150341E+09 0.343729E+08 0.234593E+10
     4711.00  0.145860E+09 0.407886E+08 0.219252E+10
     4736.00  0.141409E+09 0.474255E+08 0.204584E+10
     4761.00  0.136997E+09 0.542197E+08 0.190580E+10
     4786.00  0.132628E+09 0.611128E+08 0.177229E+10
     4811.00  0.128308E+09 0.680511E+08 0.164522E+10
     4836.00  0.124042E+09 0.749860E+08 0.152444E+10
     4861.00  0.119836E+09 0.818731E+08 0.140984E+10
     4886.00  0.115692E+09 0.886724E+08 0.130126E+10
     4911.00  0.111615E+09 0.953479E+08 0.119855E+10
     4936.00  0.107608E+09 0.101868E+09 0.110155E+10
     4961.00  0.103674E+09 0.108203E+09 0.101010E+10
     4986.00  0.998169E+08 0.114328E+09 0.924040E+09
     5011.00  0.960382E+08 0.120222E+09 0.843187E+09
     5036.00  0.923403E+08 0.125866E+09 0.767369E+09
     5061.00  0.887250E+08 0.131244E+09 0.696408E+09
     5086.00  0.851938E+08 0.136341E+09 0.630125E+09
     5111.00  0.817480E+08 0.141147E+09 0.568341E+09
     5136.00  0.783887E+08 0.145654E+09 0.510875E+09
     5161.00  0.751166E+08 0.149854E+09 0.457549E+09
     5186.00  0.719323E+08 0.153744E+09 0.408184E+09
     5211.00  0.688362E+08 0.157319E+09 0.362603E+09
     5236.00  0.658283E+08 0.160579E+09 0.320631E+09
     5261.00  0.629086E+08 0.163525E+09 0.282097E+09
     5286.00  0.600768E+08 0.166157E+09 0.246829E+09
     5311.00  0.573327E+08 0.168478E+09 0.214662E+09
     5336.00  0.546755E+08 0.170493E+09 0.185432E+09
     5361.00  0.521047E+08 0.172207E+09 0.158979E+09
     5386.00  0.496193E+08 0.173626E+09 0.135149E+09
     5411.00  0.472185E+08 0.174756E+09 0.113789E+09
     5436.00  0.449011E+08 0.175605E+09 0.947528E+08
     5461.00  0.426660E+08 0.176181E+09 0.778964E+08
     5511.00  0.384375E+08 0.176548E+09 0.501760E+08
     5561.00  0.345221E+08 0.175934E+09 0.295774E+08
     5611.00  0.309077E+08 0.174416E+09 0.151256E+08
     5661.00  0.275813E+08 0.172079E+09 0.592181E+07
     5711.00  0.245294E+08 0.169006E+09 0.114341E+07
     5761.00  0.217381E+08 0.165280E+09 0.422994E+05
     5811.00  0.191931E+08 0.160986E+09 0.194295E+07
     5861.00  0.168802E+08 0.156204E+09 0.623973E+07
     5911.00  0.147851E+08 0.151011E+09 0.123937E+08
     5961.00  0.128938E+08 0.145481E+09 0.199291E+08
     6011.00  0.111922E+08 0.139684E+09 0.284296E+08
     6061.00  0.966711E+07 0.133685E+09 0.375341E+08
     6111.00  0.830529E+07 0.127544E+09 0.469331E+08
     6161.00  0.709414E+07 0.121318E+09 0.563643E+08
     6211.00  0.602156E+07 0.115055E+09 0.656086E+08
     6261.00  0.507599E+07 0.108803E+09 0.744862E+08
     6311.00  0.424643E+07 0.102602E+09 0.828527E+08
     6361.00  0.352244E+07 0.964883E+08 0.905954E+08
     6411.00  0.289422E+07 0.904925E+08 0.976297E+08
     6461.00  0.235254E+07 0.846422E+08 0.103896E+09
     6511.00  0.188875E+07 0.789606E+08 0.109356E+09
     6561.00  0.149479E+07 0.734666E+08 0.113991E+09
     6611.00  0.116319E+07 0.681762E+08 0.117797E+09
     6661.00  0.887021E+06 0.631016E+08 0.120785E+09
     6711.00  0.659880E+06 0.582521E+08 0.122977E+09
     6761.00  0.475892E+06 0.536343E+08 0.124403E+09
     6811.00  0.329672E+06 0.492521E+08 0.125102E+09
     6861.00  0.216308E+06 0.451075E+08 0.125117E+09
     6911.00  0.131331E+06 0.412002E+08 0.124497E+09
     6961.00  0.706936E+05 0.375281E+08 0.123294E+09
     7011.00  0.307436E+05 0.340879E+08 0.121559E+09
     7061.00  0.820022E+04 0.308747E+08 0.119346E+09
     7111.00  0.128242E+03 0.278826E+08 0.116710E+09
     7161.00  0.391377E+04 0.251047E+08 0.113703E+09
     7211.00  0.172406E+05 0.225335E+08 0.110376E+09
     7261.00  0.380671E+05 0.201606E+08 0.106778E+09
     7311.00  0.646044E+05 0.179775E+08 0.102959E+09
     7361.00  0.952946E+05 0.159749E+08 0.989614E+08
     7411.00  0.128791E+06 0.141438E+08 0.948282E+08
     7511.00  0.199756E+06 0.109580E+08 0.863080E+08
     7611.00  0.270242E+06 0.834512E+07 0.776748E+08
     7711.00  0.335248E+06 0.623204E+07 0.691565E+08
     7811.00  0.391568E+06 0.454918E+07 0.609337E+08
     7911.00  0.437395E+06 0.323180E+07 0.531436E+08
     8011.00  0.471985E+06 0.222072E+07 0.458840E+08
     8111.00  0.495375E+06 0.146279E+07 0.392181E+08
     8211.00  0.508154E+06 0.910973E+06 0.331801E+08
     8311.00  0.511280E+06 0.524236E+06 0.277802E+08
     8411.00  0.505934E+06 0.267315E+06 0.230094E+08
     8511.00  0.493402E+06 0.110311E+06 0.188437E+08
     8611.00  0.474994E+06 0.282422E+05 0.152486E+08
     8711.00  0.451981E+06 0.551020E+03 0.121817E+08
     8811.00  0.425551E+06 0.105948E+05 0.959639E+07
     8911.00  0.396780E+06 0.451435E+05 0.744362E+07
     9011.00  0.366620E+06 0.938980E+05 0.567419E+07
     9111.00  0.335891E+06 0.149040E+06 0.424003E+07
     9211.00  0.305278E+06 0.204818E+06 0.309536E+07
     9311.00  0.275340E+06 0.257179E+06 0.219744E+07
     9411.00  0.246519E+06 0.303435E+06 0.150710E+07
     9511.00  0.219150E+06 0.341980E+06 0.989006E+06
     9611.00  0.193470E+06 0.372044E+06 0.611744E+06
     9711.00  0.169637E+06 0.393484E+06 0.347787E+06
     9811.00  0.147739E+06 0.406611E+06 0.173338E+06
     9911.00  0.127803E+06 0.412053E+06 0.681088E+05
    10011.00  0.109811E+06 0.410633E+06 0.150400E+05
    10111.00  0.937081E+05 0.403286E+06 0.876690E-01
    10211.00  0.794104E+05 0.390990E+06 0.114659E+05
    10311.00  0.668135E+05 0.374711E+06 0.402055E+05
    10411.00  0.557995E+05 0.355368E+06 0.789707E+05
    10511.00  0.462420E+05 0.333809E+06 0.122207E+06
    10611.00  0.380111E+05 0.310796E+06 0.165783E+06
    10711.00  0.309769E+05 0.286992E+06 0.206751E+06
    10811.00  0.250124E+05 0.262965E+06 0.243119E+06
    10911.00  0.199958E+05 0.239189E+06 0.273671E+06
    11011.00  0.158122E+05 0.216045E+06 0.297790E+06
    11111.00  0.123544E+05 0.193833E+06 0.315320E+06
    11211.00  0.952388E+04 0.172775E+06 0.326446E+06
    11311.00  0.723084E+04 0.153031E+06 0.331591E+06
    11411.00  0.539445E+04 0.134701E+06 0.331341E+06
    11511.00  0.394258E+04 0.117838E+06 0.326372E+06
    11611.00  0.281148E+04 0.102454E+06 0.317406E+06
    11711.00  0.194531E+04 0.885316E+05 0.305168E+06
    11811.00  0.129558E+04 0.760257E+05 0.290358E+06
    11911.00  0.820579E+03 0.648731E+05 0.273631E+06
    12011.00  0.484761E+03 0.549965E+05 0.255585E+06
    12111.00  0.258109E+03 0.463096E+05 0.236748E+06
    12211.00  0.115534E+03 0.387206E+05 0.217581E+06
    12311.00  0.362914E+02 0.321353E+05 0.198474E+06
    12411.00  0.342868E+01 0.264600E+05 0.179749E+06
    12511.00  0.327150E+01 0.216028E+05 0.161665E+06
    12611.00  0.249539E+02 0.174755E+05 0.144421E+06
    12711.00  0.599904E+02 0.139948E+05 0.128165E+06
    12811.00  0.101893E+03 0.110825E+05 0.112997E+06
    12911.00  0.145828E+03 0.866662E+04 0.989795E+05
    13011.00  0.188323E+03 0.668101E+04 0.861386E+05
    13111.00  0.226997E+03 0.506575E+04 0.744739E+05
    13211.00  0.260343E+03 0.376690E+04 0.639619E+05
    13311.00  0.287536E+03 0.273630E+04 0.545616E+05
    13411.00  0.308267E+03 0.193126E+04 0.462181E+05
    13511.00  0.322611E+03 0.131424E+04 0.388674E+05
    13611.00  0.330920E+03 0.852420E+03 0.324388E+05
    13711.00  0.333726E+03 0.517355E+03 0.268578E+05
    13811.00  0.331674E+03 0.284541E+03 0.220490E+05
    13911.00  0.325465E+03 0.133024E+03 0.179372E+05
    14011.00  0.315813E+03 0.450345E+02 0.144491E+05
    14111.00  0.303413E+03 0.561714E+01 0.115147E+05
    14211.00  0.288917E+03 0.230249E+01 0.906757E+04
    14311.00  0.272923E+03 0.247947E+02 0.704601E+04
    14411.00  0.255961E+03 0.646885E+02 0.539302E+04
    14511.00  0.238494E+03 0.115211E+03 0.405655E+04
    14611.00  0.220912E+03 0.170993E+03 0.298960E+04
    14711.00  0.203538E+03 0.227857E+03 0.215006E+04
    14811.00  0.186632E+03 0.282636E+03 0.150054E+04
    14911.00  0.170393E+03 0.333014E+03 0.100819E+04
    15011.00  0.154971E+03 0.377377E+03 0.644333E+03
    15111.00  0.140466E+03 0.414693E+03 0.384195E+03
    15211.00  0.126942E+03 0.444401E+03 0.206567E+03
    15311.00  0.114428E+03 0.466320E+03 0.934535E+02
    15411.00  0.102928E+03 0.480565E+03 0.297466E+02
    15511.00  0.924240E+02 0.487484E+03 0.289901E+01
    15611.00  0.828800E+02 0.487592E+03 0.261472E+01
    15711.00  0.742493E+02 0.481524E+03 0.205588E+02
    15811.00  0.664765E+02 0.469996E+03 0.500881E+02
    15911.00  0.595010E+02 0.453771E+03 0.860054E+02
    16011.00  0.532592E+02 0.433621E+03 0.124335E+03
    16111.00  0.476871E+02 0.410319E+03 0.162124E+03
    16211.00  0.427216E+02 0.384606E+03 0.197263E+03
    16311.00  0.383019E+02 0.357186E+03 0.228332E+03
    16411.00  0.343702E+02 0.328711E+03 0.254463E+03
    16511.00  0.308723E+02 0.299775E+03 0.275221E+03
    16611.00  0.277582E+02 0.270905E+03 0.290507E+03
    16711.00  0.249820E+02 0.242562E+03 0.300474E+03
    16811.00  0.225021E+02 0.215140E+03 0.305453E+03
    16911.00  0.202811E+02 0.188964E+03 0.305898E+03
    17011.00  0.182855E+02 0.164293E+03 0.302338E+03
    17111.00  0.164859E+02 0.141324E+03 0.295341E+03
    17211.00  0.148561E+02 0.120194E+03 0.285482E+03
    17311.00  0.133737E+02 0.100988E+03 0.273323E+03
    17411.00  0.120192E+02 0.837411E+02 0.259397E+03
    17511.00  0.107759E+02 0.684454E+02 0.244194E+03
    17611.00  0.962987E+01 0.550562E+02 0.228158E+03
    17711.00  0.856965E+01 0.434973E+02 0.211680E+03
    17811.00  0.758584E+01 0.336668E+02 0.195096E+03
    17911.00  0.667111E+01 0.254432E+02 0.178692E+03
    18011.00  0.581990E+01 0.186901E+02 0.162701E+03
    18111.00  0.502823E+01 0.132620E+02 0.147309E+03
    18211.00  0.429350E+01 0.900798E+01 0.132658E+03
    18311.00  0.361431E+01 0.577661E+01 0.118853E+03
    18411.00  0.299024E+01 0.341908E+01 0.105962E+03
    18511.00  0.242165E+01 0.179245E+01 0.940237E+02
    18611.00  0.190950E+01 0.762138E+00 0.830541E+02
    18711.00  0.145513E+01 0.203946E+00 0.730463E+02
    18811.00  0.106009E+01 0.552028E-02 0.639769E+02
    18911.00  0.725911E+00 0.673494E-01 0.558098E+02
    19011.00  0.453979E+00 0.303291E+00 0.484990E+02
    19111.00  0.245325E+00 0.640682E+00 0.419914E+02
    19311.00  0.194446E-01 0.139467E+01 0.311543E+02
    19511.00  0.446494E-01 0.200015E+01 0.228212E+02
    19711.00  0.304635E+00 0.229863E+01 0.165259E+02
    19911.00  0.769125E+00 0.226274E+01 0.118437E+02
    20111.00  0.139443E+01 0.195330E+01 0.840804E+01
    20311.00  0.212570E+01 0.147817E+01 0.591543E+01
    20511.00  0.290076E+01 0.957271E+00 0.412336E+01
    20711.00  0.365482E+01 0.496189E+00 0.284373E+01
    20911.00  0.432583E+01 0.169522E+00 0.193450E+01
    21111.00  0.485961E+01 0.136371E-01 0.129086E+01
    21311.00  0.521431E+01 0.275243E-01 0.837108E+00
    21511.00  0.536382E+01 0.179690E+00 0.519550E+00
    21711.00  0.529958E+01 0.418731E+00 0.300701E+00
    21911.00  0.503075E+01 0.685228E+00 0.154680E+00
    22111.00  0.458288E+01 0.922929E+00 0.636517E-01
    22311.00  0.399496E+01 0.108764E+01 0.151382E-01
    22511.00  0.331559E+01 0.115291E+01 0.166771E-04
    22711.00  0.259826E+01 0.111218E+01 0.110795E-01
    22911.00  0.189661E+01 0.977559E+00 0.420547E-01
    23111.00  0.125981E+01 0.775955E+00 0.870129E-01
    23311.00  0.728708E+00 0.543428E+00 0.140102E+00
    23511.00  0.332935E+00 0.318816E+00 0.195546E+00
    23711.00  0.891466E-01 0.137617E+00 0.247844E+00
    23911.00  0.587502E-03 0.269658E-01 0.292083E+00
    24111.00  0.578161E-01 0.225889E-02 0.324298E+00
    24311.00  0.240484E+00 0.657279E-01 0.341789E+00
    24511.00  0.519907E+00 0.206948E+00 0.343335E+00
    24711.00  0.862138E+00 0.405031E+00 0.329268E+00
    24911.00  0.123121E+01 0.632044E+00 0.301372E+00
    25111.00  0.159228E+01 0.857127E+00 0.262641E+00
    25311.00  0.191435E+01 0.105068E+01 0.216901E+00
    25511.00  0.217245E+01 0.118815E+01 0.168367E+00
    25711.00  0.234906E+01 0.125288E+01 0.121176E+00
    25911.00  0.243473E+01 0.123789E+01 0.789657E-01
    26111.00  0.242810E+01 0.114628E+01 0.445403E-01
    26311.00  0.233504E+01 0.990498E+00 0.196579E-01
    26511.00  0.216747E+01 0.790495E+00 0.495633E-02
    26711.00  0.194166E+01 0.571115E+00 0.115291E-04
    26911.00  0.167649E+01 0.359116E+00 0.350962E-02



