         10        10        12       781C   C   D    0.822591500D+05
 E STATE HAS LABEL C   
 VIBRATIONAL LEVELS FOR STATE E IN 1/CM FOR J=  9
     -16690.49846    -14518.02780    -12476.80739    -10565.08460
     -8782.03253     -7128.75686     -5607.52484     -4223.03781
     -2982.40453     -1896.89383      -983.91488      -271.51753
 PROPORTION OF STATE C   
  0.999998E+00 0.999995E+00 0.999992E+00 0.999990E+00 0.999988E+00
  0.999988E+00 0.999987E+00 0.999987E+00 0.999981E+00 0.999988E+00
  0.999989E+00 0.999991E+00
 PROPORTION OF STATE D   
  0.170973E-05 0.536059E-05 0.814488E-05 0.101520E-04 0.114860E-04
  0.122566E-04 0.125783E-04 0.125586E-04 0.187332E-04 0.116976E-04
  0.108834E-04 0.888631E-05
 TABLE FOR EMISSION PROBABILITIES   E(J=  9,IE) ==>F(J=  9,IF)
         IE==>      0            1            2            3
        1.00  0.775487E-25 0.357438E-22 0.528117E-17 0.180623E-16
        2.00  0.519538E-22 0.264711E-19 0.377792E-14 0.129755E-13
        3.00  0.225831E-20 0.127410E-17 0.175749E-12 0.606164E-12
        4.00  0.319868E-19 0.200205E-16 0.267067E-11 0.924995E-11
        5.00  0.244781E-18 0.170322E-15 0.219843E-10 0.764628E-10
        6.00  0.126757E-17 0.982771E-15 0.122806E-09 0.428917E-09
        7.00  0.500778E-17 0.433733E-14 0.524979E-09 0.184122E-08
        8.00  0.162125E-16 0.157306E-13 0.184516E-08 0.649840E-08
        9.00  0.450359E-16 0.491052E-13 0.558465E-08 0.197502E-07
       10.00  0.110751E-15 0.136174E-12 0.150227E-07 0.533488E-07
       11.00  0.246515E-15 0.343116E-12 0.367346E-07 0.130993E-06
       12.00  0.504756E-15 0.798717E-12 0.830237E-07 0.297284E-06
       13.00  0.962345E-15 0.173958E-11 0.175636E-06 0.631499E-06
       14.00  0.172425E-14 0.357979E-11 0.351213E-06 0.126799E-05
       15.00  0.292397E-14 0.701488E-11 0.669039E-06 0.242539E-05
       16.00  0.471867E-14 0.131722E-10 0.122174E-05 0.444724E-05
       17.00  0.727691E-14 0.238235E-10 0.214972E-05 0.785726E-05
       18.00  0.107570E-13 0.416786E-10 0.366023E-05 0.134329E-04
       19.00  0.152744E-13 0.707835E-10 0.605206E-05 0.223016E-04
       20.00  0.208593E-13 0.117052E-09 0.974721E-05 0.360645E-04
       21.00  0.274038E-13 0.188964E-09 0.153306E-04 0.569537E-04
       22.00  0.346070E-13 0.298468E-09 0.235995E-04 0.880291E-04
       23.00  0.419240E-13 0.462143E-09 0.356244E-04 0.133422E-03
       24.00  0.485352E-13 0.702662E-09 0.528229E-04 0.198636E-03
       25.00  0.533567E-13 0.105063E-08 0.770490E-04 0.290907E-03
       26.00  0.551230E-13 0.154688E-08 0.110699E-03 0.419641E-03
       27.00  0.525833E-13 0.224525E-08 0.156838E-03 0.596940E-03
       28.00  0.448673E-13 0.321605E-08 0.219349E-03 0.838214E-03
       29.00  0.320923E-13 0.455018E-08 0.303102E-03 0.116291E-02
       30.00  0.163007E-13 0.636418E-08 0.414162E-03 0.159537E-02
       31.00  0.284407E-14 0.880616E-08 0.560013E-03 0.216582E-02
       32.00  0.235017E-14 0.120630E-07 0.749833E-03 0.291150E-02
       33.00  0.334446E-13 0.163687E-07 0.994794E-03 0.387803E-02
       34.00  0.126431E-12 0.220143E-07 0.130841E-02 0.512087E-02
       35.00  0.328172E-12 0.293598E-07 0.170694E-02 0.670712E-02
       36.00  0.708466E-12 0.388473E-07 0.220981E-02 0.871746E-02
       37.00  0.136825E-11 0.510173E-07 0.284016E-02 0.112484E-01
       38.00  0.245006E-11 0.665266E-07 0.362537E-02 0.144148E-01
       39.00  0.415111E-11 0.861696E-07 0.459770E-02 0.183529E-01
       40.00  0.673971E-11 0.110903E-06 0.579500E-02 0.232232E-01
       42.00  0.161338E-10 0.180444E-06 0.904865E-02 0.365469E-01
       44.00  0.350872E-10 0.287195E-06 0.138327E-01 0.563068E-01
       46.00  0.710300E-10 0.448017E-06 0.207424E-01 0.850916E-01
       48.00  0.135914E-09 0.686171E-06 0.305608E-01 0.126344E+00
       50.00  0.248386E-09 0.103334E-05 0.443058E-01 0.184587E+00
       52.00  0.436783E-09 0.153214E-05 0.632865E-01 0.265699E+00
       54.00  0.743203E-09 0.223931E-05 0.891700E-01 0.377247E+00
       56.00  0.122894E-08 0.322964E-05 0.124061E+00 0.528881E+00
       58.00  0.198166E-08 0.460077E-05 0.170594E+00 0.732808E+00
       60.00  0.312478E-08 0.647915E-05 0.232042E+00 0.100436E+01
       62.00  0.482958E-08 0.902717E-05 0.312446E+00 0.136263E+01
       64.00  0.733063E-08 0.124519E-04 0.416757E+00 0.183129E+01
       66.00  0.109454E-07 0.170157E-04 0.551009E+00 0.243945E+01
       68.00  0.160992E-07 0.230485E-04 0.722514E+00 0.322277E+01
       70.00  0.233556E-07 0.309633E-04 0.940092E+00 0.422466E+01
       72.00  0.334555E-07 0.412741E-04 0.121433E+01 0.549776E+01
       74.00  0.473644E-07 0.546173E-04 0.155790E+01 0.710564E+01
       76.00  0.663310E-07 0.717779E-04 0.198587E+01 0.912478E+01
       78.00  0.919597E-07 0.937195E-04 0.251617E+01 0.116468E+02
       80.00  0.126298E-06 0.121620E-03 0.317000E+01 0.147813E+02
       82.00  0.171944E-06 0.156916E-03 0.397238E+01 0.186585E+02
       84.00  0.232174E-06 0.201350E-03 0.495275E+01 0.234335E+02
       86.00  0.311104E-06 0.257033E-03 0.614569E+01 0.292897E+02
       88.00  0.413875E-06 0.326511E-03 0.759168E+01 0.364441E+02
       90.00  0.546881E-06 0.412849E-03 0.933806E+01 0.451523E+02
       92.00  0.718049E-06 0.519730E-03 0.114401E+02 0.557157E+02
       94.00  0.937165E-06 0.651565E-03 0.139622E+02 0.684884E+02
       96.00  0.121627E-05 0.813634E-03 0.169795E+02 0.838862E+02
       98.00  0.157015E-05 0.101224E-02 0.205791E+02 0.102397E+03
      100.00  0.201689E-05 0.125490E-02 0.248626E+02 0.124592E+03
      102.00  0.257858E-05 0.155057E-02 0.299476E+02 0.151141E+03
      104.00  0.328210E-05 0.190989E-02 0.359711E+02 0.182827E+03
      106.00  0.416016E-05 0.234553E-02 0.430917E+02 0.220565E+03
      108.00  0.525244E-05 0.287250E-02 0.514935E+02 0.265425E+03
      110.00  0.660700E-05 0.350862E-02 0.613900E+02 0.318658E+03
      112.00  0.828200E-05 0.427505E-02 0.730290E+02 0.381725E+03
      114.00  0.103477E-04 0.519683E-02 0.866978E+02 0.456333E+03
      116.00  0.128890E-04 0.630367E-02 0.102730E+03 0.544480E+03
      118.00  0.160084E-04 0.763077E-02 0.121513E+03 0.648499E+03
      122.00  0.245002E-04 0.111205E-01 0.169208E+03 0.915549E+03
      126.00  0.371479E-04 0.161021E-01 0.234346E+03 0.128546E+04
      130.00  0.558751E-04 0.231902E-01 0.323127E+03 0.179670E+04
      134.00  0.834776E-04 0.332526E-01 0.444005E+03 0.250242E+04
      138.00  0.124022E-03 0.475190E-01 0.608560E+03 0.347627E+04
      142.00  0.183436E-03 0.677364E-01 0.832720E+03 0.482071E+04
      146.00  0.270367E-03 0.963937E-01 0.113846E+04 0.667881E+04
      150.00  0.397446E-03 0.137042E+00 0.155615E+04 0.925061E+04
      154.00  0.583087E-03 0.194738E+00 0.212767E+04 0.128153E+05
      158.00  0.853952E-03 0.276635E+00 0.291023E+04 0.177592E+05
      162.00  0.124807E-02 0.392676E+00 0.398036E+04 0.246071E+05
      166.00  0.181802E-02 0.556215E+00 0.543610E+04 0.340437E+05
      170.00  0.263232E-02 0.784005E+00 0.739265E+04 0.468954E+05
      174.00  0.377027E-02 0.109432E+01 0.996162E+04 0.640045E+05
      178.00  0.530178E-02 0.150108E+01 0.131995E+05 0.858933E+05
      182.00  0.724298E-02 0.200221E+01 0.170168E+05 0.112143E+06
      186.00  0.949397E-02 0.256458E+01 0.210787E+05 0.140670E+06
      190.00  0.118041E-01 0.311833E+01 0.247995E+05 0.167585E+06
      194.00  0.138338E-01 0.357669E+01 0.275374E+05 0.188418E+06
      198.00  0.153102E-01 0.387678E+01 0.289103E+05 0.200277E+06
      202.00  0.161488E-01 0.400746E+01 0.289604E+05 0.203112E+06
      206.00  0.164432E-01 0.400150E+01 0.280360E+05 0.199055E+06
      210.00  0.163656E-01 0.390780E+01 0.265573E+05 0.190871E+06
      214.00  0.160804E-01 0.376967E+01 0.248604E+05 0.180857E+06
      218.00  0.157078E-01 0.361702E+01 0.231577E+05 0.170518E+06
      222.00  0.153222E-01 0.346739E+01 0.215611E+05 0.160682E+06
      226.00  0.149646E-01 0.332964E+01 0.201171E+05 0.151725E+06
      230.00  0.146548E-01 0.320740E+01 0.188362E+05 0.143767E+06
      234.00  0.143999E-01 0.310143E+01 0.177109E+05 0.136789E+06
      238.00  0.142008E-01 0.301101E+01 0.167261E+05 0.130716E+06
      242.00  0.140546E-01 0.293484E+01 0.158645E+05 0.125446E+06
      246.00  0.139573E-01 0.287139E+01 0.151094E+05 0.120880E+06
      250.00  0.139045E-01 0.281914E+01 0.144456E+05 0.116922E+06
      254.00  0.138916E-01 0.277671E+01 0.138599E+05 0.113487E+06
      258.00  0.139146E-01 0.274285E+01 0.133409E+05 0.110504E+06
      262.00  0.139699E-01 0.271649E+01 0.128789E+05 0.107908E+06
      266.00  0.140543E-01 0.269668E+01 0.124660E+05 0.105648E+06
      270.00  0.141649E-01 0.268262E+01 0.120952E+05 0.103678E+06
      274.00  0.142992E-01 0.267362E+01 0.117608E+05 0.101960E+06
      282.00  0.146308E-01 0.266844E+01 0.111824E+05 0.991518E+05
      290.00  0.150350E-01 0.267728E+01 0.107001E+05 0.970156E+05
      298.00  0.155007E-01 0.269720E+01 0.102915E+05 0.953979E+05
      306.00  0.160197E-01 0.272600E+01 0.994019E+04 0.941853E+05
      314.00  0.165854E-01 0.276199E+01 0.963403E+04 0.932927E+05
      322.00  0.171927E-01 0.280384E+01 0.936380E+04 0.926544E+05
      330.00  0.178370E-01 0.285047E+01 0.912237E+04 0.922197E+05
      338.00  0.185149E-01 0.290103E+01 0.890426E+04 0.919481E+05
      346.00  0.192234E-01 0.295481E+01 0.870516E+04 0.918081E+05
      354.00  0.199599E-01 0.301124E+01 0.852173E+04 0.917747E+05
      362.00  0.207224E-01 0.306984E+01 0.835131E+04 0.918276E+05
      370.00  0.215088E-01 0.313021E+01 0.819172E+04 0.919500E+05
      378.00  0.223174E-01 0.319199E+01 0.804120E+04 0.921282E+05
      386.00  0.231466E-01 0.325486E+01 0.789833E+04 0.923504E+05
      394.00  0.239950E-01 0.331858E+01 0.776195E+04 0.926074E+05
      402.00  0.248615E-01 0.338291E+01 0.763115E+04 0.928917E+05
      410.00  0.257449E-01 0.344767E+01 0.750516E+04 0.931968E+05
      418.00  0.266441E-01 0.351270E+01 0.738336E+04 0.935173E+05
      426.00  0.275583E-01 0.357782E+01 0.726521E+04 0.938486E+05
      434.00  0.284864E-01 0.364291E+01 0.715027E+04 0.941867E+05
      442.00  0.294276E-01 0.370785E+01 0.703819E+04 0.945286E+05
      450.00  0.303813E-01 0.377255E+01 0.692869E+04 0.948717E+05
      458.00  0.313469E-01 0.383692E+01 0.682155E+04 0.952141E+05
      466.00  0.323238E-01 0.390090E+01 0.671656E+04 0.955540E+05
      474.00  0.333112E-01 0.396440E+01 0.661356E+04 0.958898E+05
      482.00  0.343088E-01 0.402736E+01 0.651240E+04 0.962202E+05
      490.00  0.353158E-01 0.408972E+01 0.641294E+04 0.965440E+05
      498.00  0.363319E-01 0.415144E+01 0.631510E+04 0.968603E+05
      506.00  0.373566E-01 0.421248E+01 0.621879E+04 0.971685E+05
      514.00  0.383895E-01 0.427279E+01 0.612395E+04 0.974681E+05
      522.00  0.394301E-01 0.433235E+01 0.603052E+04 0.977585E+05
      530.00  0.404780E-01 0.439110E+01 0.593842E+04 0.980391E+05
      538.00  0.415327E-01 0.444902E+01 0.584760E+04 0.983094E+05
      546.00  0.425938E-01 0.450607E+01 0.575801E+04 0.985689E+05
      554.00  0.436608E-01 0.456222E+01 0.566962E+04 0.988174E+05
      562.00  0.447335E-01 0.461745E+01 0.558239E+04 0.990546E+05
      570.00  0.458114E-01 0.467174E+01 0.549630E+04 0.992804E+05
      578.00  0.468941E-01 0.472506E+01 0.541132E+04 0.994948E+05
      586.00  0.479814E-01 0.477741E+01 0.532742E+04 0.996974E+05
      596.00  0.493462E-01 0.484142E+01 0.522404E+04 0.999339E+05
      606.00  0.507166E-01 0.490383E+01 0.512227E+04 0.100151E+06
      616.00  0.520921E-01 0.496461E+01 0.502209E+04 0.100350E+06
      626.00  0.534722E-01 0.502375E+01 0.492348E+04 0.100531E+06
      636.00  0.548562E-01 0.508125E+01 0.482643E+04 0.100693E+06
      646.00  0.562439E-01 0.513708E+01 0.473091E+04 0.100836E+06
      656.00  0.576344E-01 0.519124E+01 0.463690E+04 0.100962E+06
      666.00  0.590274E-01 0.524371E+01 0.454439E+04 0.101070E+06
      676.00  0.604223E-01 0.529450E+01 0.445335E+04 0.101160E+06
      686.00  0.618189E-01 0.534361E+01 0.436378E+04 0.101233E+06
      696.00  0.632166E-01 0.539104E+01 0.427567E+04 0.101289E+06
      706.00  0.646151E-01 0.543680E+01 0.418900E+04 0.101328E+06
      716.00  0.660139E-01 0.548088E+01 0.410375E+04 0.101351E+06
      726.00  0.674126E-01 0.552329E+01 0.401991E+04 0.101358E+06
      736.00  0.688106E-01 0.556402E+01 0.393744E+04 0.101348E+06
      746.00  0.702075E-01 0.560307E+01 0.385634E+04 0.101323E+06
      756.00  0.716029E-01 0.564046E+01 0.377660E+04 0.101282E+06
      766.00  0.729965E-01 0.567619E+01 0.369818E+04 0.101226E+06
      776.00  0.743878E-01 0.571027E+01 0.362109E+04 0.101155E+06
      786.00  0.757763E-01 0.574270E+01 0.354529E+04 0.101068E+06
      796.00  0.771616E-01 0.577347E+01 0.347077E+04 0.100967E+06
      806.00  0.785431E-01 0.580260E+01 0.339750E+04 0.100852E+06
      816.00  0.799206E-01 0.583010E+01 0.332548E+04 0.100721E+06
      826.00  0.812937E-01 0.585597E+01 0.325469E+04 0.100577E+06
      836.00  0.826620E-01 0.588025E+01 0.318511E+04 0.100419E+06
      846.00  0.840252E-01 0.590293E+01 0.311673E+04 0.100247E+06
      856.00  0.853830E-01 0.592403E+01 0.304953E+04 0.100062E+06
      866.00  0.867349E-01 0.594356E+01 0.298351E+04 0.998641E+05
      876.00  0.880807E-01 0.596155E+01 0.291863E+04 0.996531E+05
      886.00  0.894199E-01 0.597799E+01 0.285490E+04 0.994294E+05
      896.00  0.907525E-01 0.599293E+01 0.279228E+04 0.991936E+05
      906.00  0.920781E-01 0.600637E+01 0.273079E+04 0.989458E+05
      916.00  0.933965E-01 0.601834E+01 0.267039E+04 0.986865E+05
      926.00  0.947074E-01 0.602885E+01 0.261108E+04 0.984157E+05
      936.00  0.960105E-01 0.603793E+01 0.255283E+04 0.981338E+05
      946.00  0.973055E-01 0.604559E+01 0.249564E+04 0.978410E+05
      956.00  0.985921E-01 0.605184E+01 0.243949E+04 0.975374E+05
      966.00  0.998701E-01 0.605671E+01 0.238436E+04 0.972235E+05
      976.00  0.101139E+00 0.606023E+01 0.233024E+04 0.968993E+05
      986.00  0.102399E+00 0.606240E+01 0.227713E+04 0.965653E+05
      996.00  0.103650E+00 0.606325E+01 0.222499E+04 0.962217E+05
     1006.00  0.104891E+00 0.606281E+01 0.217382E+04 0.958685E+05
     1016.00  0.106122E+00 0.606108E+01 0.212361E+04 0.955061E+05
     1026.00  0.107343E+00 0.605808E+01 0.207433E+04 0.951346E+05
     1036.00  0.108554E+00 0.605383E+01 0.202598E+04 0.947542E+05
     1046.00  0.109754E+00 0.604836E+01 0.197854E+04 0.943651E+05
     1056.00  0.110943E+00 0.604169E+01 0.193200E+04 0.939677E+05
     1066.00  0.112121E+00 0.603383E+01 0.188635E+04 0.935621E+05
     1076.00  0.113288E+00 0.602482E+01 0.184156E+04 0.931486E+05
     1086.00  0.114444E+00 0.601468E+01 0.179764E+04 0.927274E+05
     1096.00  0.115587E+00 0.600341E+01 0.175456E+04 0.922986E+05
     1106.00  0.116719E+00 0.599105E+01 0.171232E+04 0.918626E+05
     1116.00  0.117840E+00 0.597762E+01 0.167090E+04 0.914194E+05
     1126.00  0.118947E+00 0.596313E+01 0.163028E+04 0.909694E+05
     1136.00  0.120043E+00 0.594762E+01 0.159047E+04 0.905128E+05
     1146.00  0.121126E+00 0.593111E+01 0.155144E+04 0.900498E+05
     1156.00  0.122197E+00 0.591362E+01 0.151318E+04 0.895807E+05
     1166.00  0.123255E+00 0.589518E+01 0.147569E+04 0.891057E+05
     1176.00  0.124301E+00 0.587580E+01 0.143894E+04 0.886249E+05
     1186.00  0.125333E+00 0.585550E+01 0.140294E+04 0.881386E+05
     1196.00  0.126353E+00 0.583432E+01 0.136766E+04 0.876469E+05
     1206.00  0.127359E+00 0.581226E+01 0.133309E+04 0.871501E+05
     1216.00  0.128352E+00 0.578935E+01 0.129923E+04 0.866483E+05
     1226.00  0.129331E+00 0.576562E+01 0.126606E+04 0.861417E+05
     1236.00  0.130297E+00 0.574109E+01 0.123358E+04 0.856306E+05
     1246.00  0.131250E+00 0.571577E+01 0.120176E+04 0.851151E+05
     1256.00  0.132189E+00 0.568969E+01 0.117060E+04 0.845954E+05
     1266.00  0.133113E+00 0.566287E+01 0.114009E+04 0.840716E+05
     1276.00  0.134024E+00 0.563532E+01 0.111022E+04 0.835439E+05
     1286.00  0.134921E+00 0.560707E+01 0.108098E+04 0.830125E+05
     1296.00  0.135803E+00 0.557814E+01 0.105235E+04 0.824774E+05
     1306.00  0.136672E+00 0.554854E+01 0.102433E+04 0.819389E+05
     1316.00  0.137525E+00 0.551830E+01 0.996906E+03 0.813972E+05
     1326.00  0.138365E+00 0.548744E+01 0.970068E+03 0.808524E+05
     1336.00  0.139190E+00 0.545597E+01 0.943806E+03 0.803047E+05
     1346.00  0.140000E+00 0.542393E+01 0.918112E+03 0.797543E+05
     1356.00  0.140795E+00 0.539132E+01 0.892974E+03 0.792012E+05
     1366.00  0.141576E+00 0.535817E+01 0.868385E+03 0.786456E+05
     1376.00  0.142342E+00 0.532449E+01 0.844333E+03 0.780877E+05
     1386.00  0.143094E+00 0.529031E+01 0.820811E+03 0.775277E+05
     1396.00  0.143830E+00 0.525563E+01 0.797809E+03 0.769656E+05
     1406.00  0.144551E+00 0.522050E+01 0.775319E+03 0.764017E+05
     1416.00  0.145258E+00 0.518492E+01 0.753332E+03 0.758361E+05
     1426.00  0.145950E+00 0.514891E+01 0.731839E+03 0.752690E+05
     1436.00  0.146626E+00 0.511249E+01 0.710831E+03 0.747005E+05
     1446.00  0.147288E+00 0.507568E+01 0.690301E+03 0.741307E+05
     1456.00  0.147935E+00 0.503850E+01 0.670239E+03 0.735598E+05
     1466.00  0.148567E+00 0.500096E+01 0.650637E+03 0.729879E+05
     1476.00  0.149184E+00 0.496308E+01 0.631488E+03 0.724151E+05
     1486.00  0.149786E+00 0.492488E+01 0.612782E+03 0.718416E+05
     1496.00  0.150372E+00 0.488638E+01 0.594513E+03 0.712675E+05
     1506.00  0.150944E+00 0.484759E+01 0.576672E+03 0.706929E+05
     1516.00  0.151501E+00 0.480853E+01 0.559252E+03 0.701180E+05
     1526.00  0.152043E+00 0.476922E+01 0.542244E+03 0.695428E+05
     1536.00  0.152570E+00 0.472967E+01 0.525642E+03 0.689675E+05
     1546.00  0.153082E+00 0.468989E+01 0.509438E+03 0.683922E+05
     1556.00  0.153579E+00 0.464991E+01 0.493625E+03 0.678170E+05
     1566.00  0.154061E+00 0.460973E+01 0.478194E+03 0.672419E+05
     1576.00  0.154528E+00 0.456937E+01 0.463140E+03 0.666672E+05
     1586.00  0.154980E+00 0.452884E+01 0.448454E+03 0.660928E+05
     1596.00  0.155417E+00 0.448816E+01 0.434130E+03 0.655189E+05
     1606.00  0.155839E+00 0.444735E+01 0.420162E+03 0.649455E+05
     1616.00  0.156247E+00 0.440642E+01 0.406542E+03 0.643729E+05
     1626.00  0.156639E+00 0.436537E+01 0.393264E+03 0.638011E+05
     1636.00  0.157017E+00 0.432423E+01 0.380322E+03 0.632301E+05
     1646.00  0.157379E+00 0.428301E+01 0.367708E+03 0.626601E+05
     1656.00  0.157727E+00 0.424172E+01 0.355417E+03 0.620911E+05
     1666.00  0.158061E+00 0.420037E+01 0.343442E+03 0.615233E+05
     1676.00  0.158379E+00 0.415897E+01 0.331777E+03 0.609566E+05
     1686.00  0.158683E+00 0.411754E+01 0.320416E+03 0.603913E+05
     1696.00  0.158972E+00 0.407609E+01 0.309354E+03 0.598273E+05
     1706.00  0.159247E+00 0.403462E+01 0.298583E+03 0.592648E+05
     1716.00  0.159507E+00 0.399317E+01 0.288099E+03 0.587039E+05
     1726.00  0.159753E+00 0.395172E+01 0.277896E+03 0.581446E+05
     1736.00  0.159985E+00 0.391031E+01 0.267968E+03 0.575869E+05
     1746.00  0.160202E+00 0.386892E+01 0.258310E+03 0.570311E+05
     1756.00  0.160405E+00 0.382759E+01 0.248915E+03 0.564771E+05
     1766.00  0.160594E+00 0.378631E+01 0.239780E+03 0.559250E+05
     1776.00  0.160768E+00 0.374510E+01 0.230898E+03 0.553749E+05
     1786.00  0.160929E+00 0.370396E+01 0.222264E+03 0.548268E+05
     1796.00  0.161076E+00 0.366291E+01 0.213874E+03 0.542808E+05
     1806.00  0.161209E+00 0.362196E+01 0.205722E+03 0.537370E+05
     1816.00  0.161328E+00 0.358111E+01 0.197803E+03 0.531954E+05
     1826.00  0.161433E+00 0.354037E+01 0.190112E+03 0.526561E+05
     1836.00  0.161525E+00 0.349976E+01 0.182645E+03 0.521192E+05
     1846.00  0.161603E+00 0.345927E+01 0.175397E+03 0.515846E+05
     1856.00  0.161667E+00 0.341893E+01 0.168363E+03 0.510525E+05
     1866.00  0.161718E+00 0.337873E+01 0.161538E+03 0.505229E+05
     1876.00  0.161756E+00 0.333869E+01 0.154918E+03 0.499958E+05
     1886.00  0.161781E+00 0.329880E+01 0.148499E+03 0.494713E+05
     1896.00  0.161792E+00 0.325909E+01 0.142276E+03 0.489494E+05
     1906.00  0.161790E+00 0.321954E+01 0.136245E+03 0.484302E+05
     1916.00  0.161775E+00 0.318019E+01 0.130402E+03 0.479137E+05
     1926.00  0.161747E+00 0.314102E+01 0.124742E+03 0.473999E+05
     1936.00  0.161706E+00 0.310204E+01 0.119262E+03 0.468889E+05
     1946.00  0.161653E+00 0.306327E+01 0.113957E+03 0.463808E+05
     1956.00  0.161587E+00 0.302470E+01 0.108824E+03 0.458755E+05
     1966.00  0.161508E+00 0.298635E+01 0.103859E+03 0.453732E+05
     1976.00  0.161416E+00 0.294822E+01 0.990577E+02 0.448737E+05
     1986.00  0.161313E+00 0.291031E+01 0.944163E+02 0.443773E+05
     1996.00  0.161197E+00 0.287263E+01 0.899314E+02 0.438838E+05
     2006.00  0.161068E+00 0.283518E+01 0.855994E+02 0.433933E+05
     2016.00  0.160928E+00 0.279797E+01 0.814167E+02 0.429059E+05
     2026.00  0.160775E+00 0.276101E+01 0.773798E+02 0.424216E+05
     2036.00  0.160611E+00 0.272430E+01 0.734853E+02 0.419404E+05
     2046.00  0.160434E+00 0.268784E+01 0.697298E+02 0.414623E+05
     2056.00  0.160247E+00 0.265164E+01 0.661101E+02 0.409875E+05
     2066.00  0.160047E+00 0.261570E+01 0.626228E+02 0.405158E+05
     2076.00  0.159836E+00 0.258002E+01 0.592648E+02 0.400473E+05
     2086.00  0.159614E+00 0.254462E+01 0.560330E+02 0.395821E+05
     2096.00  0.159380E+00 0.250949E+01 0.529242E+02 0.391201E+05
     2106.00  0.159135E+00 0.247463E+01 0.499354E+02 0.386614E+05
     2116.00  0.158880E+00 0.244005E+01 0.470637E+02 0.382060E+05
     2126.00  0.158613E+00 0.240576E+01 0.443062E+02 0.377539E+05
     2136.00  0.158335E+00 0.237175E+01 0.416599E+02 0.373051E+05
     2146.00  0.158047E+00 0.233803E+01 0.391221E+02 0.368597E+05
     2156.00  0.157748E+00 0.230459E+01 0.366900E+02 0.364176E+05
     2166.00  0.157438E+00 0.227146E+01 0.343609E+02 0.359789E+05
     2176.00  0.157119E+00 0.223861E+01 0.321321E+02 0.355435E+05
     2186.00  0.156789E+00 0.220607E+01 0.300011E+02 0.351116E+05
     2196.00  0.156448E+00 0.217382E+01 0.279652E+02 0.346830E+05
     2206.00  0.156098E+00 0.214188E+01 0.260220E+02 0.342578E+05
     2216.00  0.155738E+00 0.211023E+01 0.241690E+02 0.338361E+05
     2226.00  0.155368E+00 0.207889E+01 0.224037E+02 0.334177E+05
     2236.00  0.154988E+00 0.204786E+01 0.207239E+02 0.330028E+05
     2246.00  0.154598E+00 0.201713E+01 0.191271E+02 0.325912E+05
     2256.00  0.154199E+00 0.198671E+01 0.176111E+02 0.321831E+05
     2266.00  0.153791E+00 0.195659E+01 0.161737E+02 0.317785E+05
     2276.00  0.153373E+00 0.192679E+01 0.148126E+02 0.313772E+05
     2286.00  0.152946E+00 0.189729E+01 0.135258E+02 0.309794E+05
     2296.00  0.152510E+00 0.186811E+01 0.123111E+02 0.305850E+05
     2306.00  0.152065E+00 0.183924E+01 0.111664E+02 0.301941E+05
     2316.00  0.151611E+00 0.181068E+01 0.100898E+02 0.298066E+05
     2326.00  0.151148E+00 0.178243E+01 0.907917E+01 0.294225E+05
     2336.00  0.150677E+00 0.175450E+01 0.813267E+01 0.290418E+05
     2346.00  0.150197E+00 0.172687E+01 0.724836E+01 0.286645E+05
     2356.00  0.149709E+00 0.169956E+01 0.642438E+01 0.282907E+05
     2366.00  0.149213E+00 0.167256E+01 0.565890E+01 0.279202E+05
     2376.00  0.148708E+00 0.164587E+01 0.495015E+01 0.275532E+05
     2386.00  0.148195E+00 0.161949E+01 0.429635E+01 0.271896E+05
     2396.00  0.147675E+00 0.159343E+01 0.369580E+01 0.268294E+05
     2406.00  0.147146E+00 0.156768E+01 0.314682E+01 0.264726E+05
     2416.00  0.146610E+00 0.154223E+01 0.264776E+01 0.261191E+05
     2426.00  0.146066E+00 0.151710E+01 0.219701E+01 0.257691E+05
     2436.00  0.145515E+00 0.149228E+01 0.179300E+01 0.254224E+05
     2446.00  0.144957E+00 0.146776E+01 0.143418E+01 0.250791E+05
     2456.00  0.144391E+00 0.144355E+01 0.111905E+01 0.247391E+05
     2466.00  0.143818E+00 0.141965E+01 0.846121E+00 0.244025E+05
     2476.00  0.143238E+00 0.139606E+01 0.613956E+00 0.240692E+05
     2486.00  0.142651E+00 0.137277E+01 0.421140E+00 0.237392E+05
     2496.00  0.142058E+00 0.134978E+01 0.266293E+00 0.234125E+05
     2506.00  0.141457E+00 0.132709E+01 0.148062E+00 0.230892E+05
     2516.00  0.140850E+00 0.130471E+01 0.651257E-01 0.227691E+05
     2526.00  0.140237E+00 0.128262E+01 0.161930E-01 0.224523E+05
     2536.00  0.139618E+00 0.126084E+01 0.880186E-06 0.221388E+05
     2546.00  0.138992E+00 0.123935E+01 0.153154E-01 0.218285E+05
     2556.00  0.138360E+00 0.121815E+01 0.609307E-01 0.215215E+05
     2566.00  0.137722E+00 0.119725E+01 0.135669E+00 0.212177E+05
     2576.00  0.137078E+00 0.117664E+01 0.238378E+00 0.209171E+05
     2586.00  0.136429E+00 0.115632E+01 0.367935E+00 0.206197E+05
     2596.00  0.135774E+00 0.113629E+01 0.523241E+00 0.203254E+05
     2606.00  0.135113E+00 0.111654E+01 0.703224E+00 0.200344E+05
     2616.00  0.134447E+00 0.109708E+01 0.906838E+00 0.197464E+05
     2626.00  0.133775E+00 0.107790E+01 0.113306E+01 0.194616E+05
     2636.00  0.133098E+00 0.105900E+01 0.138089E+01 0.191799E+05
     2646.00  0.132416E+00 0.104038E+01 0.164937E+01 0.189013E+05
     2656.00  0.131729E+00 0.102204E+01 0.193753E+01 0.186258E+05
     2666.00  0.131038E+00 0.100397E+01 0.224445E+01 0.183534E+05
     2676.00  0.130341E+00 0.986175E+00 0.256924E+01 0.180840E+05
     2686.00  0.129640E+00 0.968649E+00 0.291100E+01 0.178176E+05
     2696.00  0.128934E+00 0.951392E+00 0.326888E+01 0.175542E+05
     2706.00  0.128223E+00 0.934401E+00 0.364205E+01 0.172938E+05
     2716.00  0.127509E+00 0.917673E+00 0.402968E+01 0.170364E+05
     2726.00  0.126790E+00 0.901207E+00 0.443099E+01 0.167820E+05
     2736.00  0.126066E+00 0.885000E+00 0.484519E+01 0.165304E+05
     2746.00  0.125339E+00 0.869050E+00 0.527153E+01 0.162818E+05
     2756.00  0.124608E+00 0.853354E+00 0.570929E+01 0.160361E+05
     2766.00  0.123873E+00 0.837911E+00 0.615774E+01 0.157933E+05
     2776.00  0.123134E+00 0.822718E+00 0.661618E+01 0.155533E+05
     2786.00  0.122391E+00 0.807772E+00 0.708395E+01 0.153162E+05
     2796.00  0.121645E+00 0.793071E+00 0.756039E+01 0.150819E+05
     2806.00  0.120896E+00 0.778614E+00 0.804484E+01 0.148504E+05
     2816.00  0.120143E+00 0.764396E+00 0.853670E+01 0.146216E+05
     2826.00  0.119387E+00 0.750417E+00 0.903535E+01 0.143957E+05
     2836.00  0.118628E+00 0.736673E+00 0.954021E+01 0.141724E+05
     2846.00  0.117866E+00 0.723161E+00 0.100507E+02 0.139519E+05
     2856.00  0.117101E+00 0.709880E+00 0.105663E+02 0.137341E+05
     2866.00  0.116333E+00 0.696827E+00 0.110864E+02 0.135190E+05
     2876.00  0.115562E+00 0.684000E+00 0.116105E+02 0.133065E+05
     2886.00  0.114789E+00 0.671395E+00 0.121381E+02 0.130967E+05
     2896.00  0.114013E+00 0.659011E+00 0.126688E+02 0.128895E+05
     2906.00  0.113235E+00 0.646845E+00 0.132019E+02 0.126848E+05
     2916.00  0.112454E+00 0.634894E+00 0.137372E+02 0.124828E+05
     2926.00  0.111671E+00 0.623156E+00 0.142741E+02 0.122833E+05
     2936.00  0.110886E+00 0.611628E+00 0.148122E+02 0.120864E+05
     2946.00  0.110099E+00 0.600309E+00 0.153510E+02 0.118919E+05
     2956.00  0.109310E+00 0.589194E+00 0.158902E+02 0.117000E+05
     2966.00  0.108519E+00 0.578283E+00 0.164294E+02 0.115105E+05
     2976.00  0.107726E+00 0.567571E+00 0.169681E+02 0.113235E+05
     2986.00  0.106932E+00 0.557057E+00 0.175061E+02 0.111389E+05
     2996.00  0.106136E+00 0.546739E+00 0.180429E+02 0.109567E+05
     3006.00  0.105338E+00 0.536613E+00 0.185783E+02 0.107769E+05
     3016.00  0.104539E+00 0.526677E+00 0.191118E+02 0.105994E+05
     3026.00  0.103739E+00 0.516929E+00 0.196431E+02 0.104243E+05
     3036.00  0.102938E+00 0.507366E+00 0.201721E+02 0.102516E+05
     3046.00  0.102135E+00 0.497986E+00 0.206982E+02 0.100811E+05
     3056.00  0.101331E+00 0.488786E+00 0.212214E+02 0.991289E+04
     3066.00  0.100526E+00 0.479764E+00 0.217412E+02 0.974695E+04
     3076.00  0.997208E-01 0.470917E+00 0.222574E+02 0.958325E+04
     3086.00  0.989144E-01 0.462243E+00 0.227698E+02 0.942177E+04
     3096.00  0.981072E-01 0.453740E+00 0.232781E+02 0.926248E+04
     3106.00  0.972993E-01 0.445404E+00 0.237821E+02 0.910536E+04
     3116.00  0.964909E-01 0.437235E+00 0.242815E+02 0.895040E+04
     3126.00  0.956820E-01 0.429228E+00 0.247761E+02 0.879757E+04
     3136.00  0.948728E-01 0.421383E+00 0.252658E+02 0.864685E+04
     3146.00  0.940632E-01 0.413696E+00 0.257503E+02 0.849822E+04
     3156.00  0.932533E-01 0.406165E+00 0.262294E+02 0.835166E+04
     3166.00  0.924433E-01 0.398789E+00 0.267029E+02 0.820714E+04
     3176.00  0.916333E-01 0.391564E+00 0.271708E+02 0.806466E+04
     3186.00  0.908232E-01 0.384488E+00 0.276327E+02 0.792419E+04
     3196.00  0.900133E-01 0.377560E+00 0.280886E+02 0.778571E+04
     3206.00  0.892035E-01 0.370776E+00 0.285383E+02 0.764919E+04
     3216.00  0.883940E-01 0.364135E+00 0.289816E+02 0.751462E+04
     3226.00  0.875849E-01 0.357635E+00 0.294185E+02 0.738198E+04
     3236.00  0.867761E-01 0.351272E+00 0.298488E+02 0.725124E+04
     3246.00  0.859678E-01 0.345046E+00 0.302723E+02 0.712239E+04
     3256.00  0.851600E-01 0.338954E+00 0.306890E+02 0.699541E+04
     3266.00  0.843529E-01 0.332994E+00 0.310987E+02 0.687027E+04
     3276.00  0.835465E-01 0.327163E+00 0.315014E+02 0.674696E+04
     3286.00  0.827409E-01 0.321460E+00 0.318969E+02 0.662546E+04
     3296.00  0.819361E-01 0.315883E+00 0.322852E+02 0.650574E+04
     3306.00  0.811323E-01 0.310429E+00 0.326662E+02 0.638780E+04
     3316.00  0.803294E-01 0.305097E+00 0.330398E+02 0.627160E+04
     3326.00  0.795277E-01 0.299884E+00 0.334059E+02 0.615713E+04
     3336.00  0.787270E-01 0.294789E+00 0.337645E+02 0.604437E+04
     3346.00  0.779276E-01 0.289809E+00 0.341155E+02 0.593330E+04
     3356.00  0.771295E-01 0.284943E+00 0.344589E+02 0.582391E+04
     3366.00  0.763327E-01 0.280190E+00 0.347945E+02 0.571616E+04
     3376.00  0.755374E-01 0.275545E+00 0.351225E+02 0.561005E+04
     3386.00  0.747435E-01 0.271010E+00 0.354426E+02 0.550556E+04
     3396.00  0.739512E-01 0.266580E+00 0.357550E+02 0.540266E+04
     3406.00  0.731605E-01 0.262255E+00 0.360595E+02 0.530133E+04
     3416.00  0.723715E-01 0.258032E+00 0.363561E+02 0.520157E+04
     3426.00  0.715842E-01 0.253910E+00 0.366449E+02 0.510335E+04
     3436.00  0.707987E-01 0.249888E+00 0.369257E+02 0.500664E+04
     3446.00  0.700151E-01 0.245963E+00 0.371986E+02 0.491145E+04
     3456.00  0.692335E-01 0.242133E+00 0.374636E+02 0.481774E+04
     3466.00  0.684538E-01 0.238398E+00 0.377207E+02 0.472550E+04
     3476.00  0.676762E-01 0.234756E+00 0.379698E+02 0.463471E+04
     3486.00  0.669008E-01 0.231204E+00 0.382110E+02 0.454535E+04
     3496.00  0.661275E-01 0.227742E+00 0.384443E+02 0.445741E+04
     3506.00  0.653565E-01 0.224368E+00 0.386697E+02 0.437087E+04
     3516.00  0.645878E-01 0.221080E+00 0.388871E+02 0.428571E+04
     3526.00  0.638214E-01 0.217876E+00 0.390967E+02 0.420191E+04
     3536.00  0.630575E-01 0.214756E+00 0.392984E+02 0.411946E+04
     3546.00  0.622961E-01 0.211718E+00 0.394923E+02 0.403834E+04
     3556.00  0.615372E-01 0.208761E+00 0.396784E+02 0.395854E+04
     3566.00  0.607809E-01 0.205882E+00 0.398566E+02 0.388003E+04
     3576.00  0.600272E-01 0.203081E+00 0.400271E+02 0.380280E+04
     3586.00  0.592763E-01 0.200356E+00 0.401899E+02 0.372684E+04
     3596.00  0.585281E-01 0.197707E+00 0.403450E+02 0.365212E+04
     3606.00  0.577828E-01 0.195131E+00 0.404924E+02 0.357864E+04
     3616.00  0.570403E-01 0.192627E+00 0.406323E+02 0.350638E+04
     3626.00  0.563008E-01 0.190195E+00 0.407645E+02 0.343531E+04
     3636.00  0.555643E-01 0.187833E+00 0.408893E+02 0.336543E+04
     3646.00  0.548308E-01 0.185539E+00 0.410066E+02 0.329672E+04
     3656.00  0.541004E-01 0.183313E+00 0.411165E+02 0.322917E+04
     3666.00  0.533732E-01 0.181154E+00 0.412190E+02 0.316275E+04
     3676.00  0.526492E-01 0.179060E+00 0.413142E+02 0.309746E+04
     3686.00  0.519284E-01 0.177030E+00 0.414021E+02 0.303328E+04
     3696.00  0.512109E-01 0.175064E+00 0.414829E+02 0.297019E+04
     3706.00  0.504968E-01 0.173159E+00 0.415565E+02 0.290818E+04
     3716.00  0.497861E-01 0.171316E+00 0.416230E+02 0.284724E+04
     3726.00  0.490788E-01 0.169533E+00 0.416825E+02 0.278734E+04
     3736.00  0.483751E-01 0.167809E+00 0.417350E+02 0.272848E+04
     3746.00  0.476748E-01 0.166143E+00 0.417807E+02 0.267065E+04
     3756.00  0.469782E-01 0.164534E+00 0.418195E+02 0.261382E+04
     3766.00  0.462853E-01 0.162982E+00 0.418516E+02 0.255799E+04
     3776.00  0.455960E-01 0.161485E+00 0.418770E+02 0.250313E+04
     3786.00  0.449104E-01 0.160043E+00 0.418958E+02 0.244925E+04
     3796.00  0.442287E-01 0.158655E+00 0.419081E+02 0.239632E+04
     3806.00  0.435508E-01 0.157320E+00 0.419139E+02 0.234432E+04
     3816.00  0.428767E-01 0.156036E+00 0.419133E+02 0.229326E+04
     3826.00  0.422066E-01 0.154805E+00 0.419063E+02 0.224310E+04
     3836.00  0.415404E-01 0.153623E+00 0.418932E+02 0.219385E+04
     3846.00  0.408783E-01 0.152492E+00 0.418738E+02 0.214548E+04
     3856.00  0.402202E-01 0.151410E+00 0.418484E+02 0.209799E+04
     3866.00  0.395661E-01 0.150377E+00 0.418169E+02 0.205137E+04
     3876.00  0.389163E-01 0.149391E+00 0.417795E+02 0.200559E+04
     3886.00  0.382705E-01 0.148452E+00 0.417363E+02 0.196065E+04
     3896.00  0.376290E-01 0.147560E+00 0.416872E+02 0.191653E+04
     3906.00  0.369918E-01 0.146714E+00 0.416325E+02 0.187323E+04
     3916.00  0.363589E-01 0.145914E+00 0.415721E+02 0.183072E+04
     3926.00  0.357303E-01 0.145158E+00 0.415063E+02 0.178901E+04
     3936.00  0.351060E-01 0.144447E+00 0.414349E+02 0.174808E+04
     3946.00  0.344862E-01 0.143779E+00 0.413582E+02 0.170791E+04
     3956.00  0.338709E-01 0.143155E+00 0.412762E+02 0.166850E+04
     3966.00  0.332600E-01 0.142573E+00 0.411889E+02 0.162983E+04
     3976.00  0.326537E-01 0.142034E+00 0.410966E+02 0.159189E+04
     3986.00  0.320520E-01 0.141536E+00 0.409992E+02 0.155467E+04
     3996.00  0.314548E-01 0.141080E+00 0.408968E+02 0.151816E+04
     4006.00  0.308623E-01 0.140665E+00 0.407895E+02 0.148236E+04
     4016.00  0.302745E-01 0.140290E+00 0.406775E+02 0.144724E+04
     4026.00  0.296914E-01 0.139955E+00 0.405607E+02 0.141280E+04
     4036.00  0.291131E-01 0.139661E+00 0.404393E+02 0.137902E+04
     4046.00  0.285395E-01 0.139406E+00 0.403134E+02 0.134591E+04
     4056.00  0.279708E-01 0.139190E+00 0.401830E+02 0.131344E+04
     4066.00  0.274069E-01 0.139012E+00 0.400482E+02 0.128161E+04
     4076.00  0.268479E-01 0.138874E+00 0.399091E+02 0.125040E+04
     4086.00  0.262938E-01 0.138773E+00 0.397658E+02 0.121982E+04
     4096.00  0.257448E-01 0.138711E+00 0.396184E+02 0.118984E+04
     4106.00  0.252007E-01 0.138686E+00 0.394669E+02 0.116046E+04
     4116.00  0.246616E-01 0.138699E+00 0.393115E+02 0.113166E+04
     4126.00  0.241276E-01 0.138748E+00 0.391522E+02 0.110345E+04
     4136.00  0.235987E-01 0.138835E+00 0.389891E+02 0.107581E+04
     4146.00  0.230749E-01 0.138959E+00 0.388223E+02 0.104872E+04
     4156.00  0.225563E-01 0.139119E+00 0.386518E+02 0.102219E+04
     4166.00  0.220428E-01 0.139316E+00 0.384778E+02 0.996200E+03
     4176.00  0.215346E-01 0.139549E+00 0.383003E+02 0.970744E+03
     4186.00  0.210316E-01 0.139818E+00 0.381194E+02 0.945814E+03
     4196.00  0.205339E-01 0.140123E+00 0.379352E+02 0.921400E+03
     4206.00  0.200416E-01 0.140464E+00 0.377478E+02 0.897493E+03
     4216.00  0.195545E-01 0.140841E+00 0.375572E+02 0.874087E+03
     4226.00  0.190728E-01 0.141253E+00 0.373636E+02 0.851171E+03
     4236.00  0.185966E-01 0.141701E+00 0.371670E+02 0.828739E+03
     4246.00  0.181257E-01 0.142185E+00 0.369674E+02 0.806782E+03
     4256.00  0.176603E-01 0.142703E+00 0.367651E+02 0.785291E+03
     4266.00  0.172004E-01 0.143257E+00 0.365599E+02 0.764260E+03
     4276.00  0.167460E-01 0.143847E+00 0.363521E+02 0.743681E+03
     4286.00  0.162971E-01 0.144471E+00 0.361417E+02 0.723545E+03
     4296.00  0.158538E-01 0.145131E+00 0.359288E+02 0.703845E+03
     4306.00  0.154161E-01 0.145826E+00 0.357134E+02 0.684574E+03
     4316.00  0.149840E-01 0.146556E+00 0.354956E+02 0.665724E+03
     4326.00  0.145576E-01 0.147321E+00 0.352755E+02 0.647288E+03
     4336.00  0.141368E-01 0.148121E+00 0.350532E+02 0.629259E+03
     4346.00  0.137217E-01 0.148956E+00 0.348287E+02 0.611630E+03
     4356.00  0.133124E-01 0.149826E+00 0.346021E+02 0.594393E+03
     4366.00  0.129088E-01 0.150732E+00 0.343736E+02 0.577543E+03
     4376.00  0.125109E-01 0.151673E+00 0.341431E+02 0.561071E+03
     4386.00  0.121189E-01 0.152648E+00 0.339107E+02 0.544972E+03
     4396.00  0.117327E-01 0.153660E+00 0.336765E+02 0.529239E+03
     4406.00  0.113523E-01 0.154706E+00 0.334405E+02 0.513865E+03
     4416.00  0.109778E-01 0.155788E+00 0.332030E+02 0.498844E+03
     4426.00  0.106092E-01 0.156905E+00 0.329638E+02 0.484170E+03
     4436.00  0.102465E-01 0.158057E+00 0.327231E+02 0.469835E+03
     4446.00  0.988971E-02 0.159245E+00 0.324809E+02 0.455835E+03
     4456.00  0.953892E-02 0.160469E+00 0.322373E+02 0.442163E+03
     4466.00  0.919412E-02 0.161728E+00 0.319924E+02 0.428813E+03
     4476.00  0.885532E-02 0.163023E+00 0.317463E+02 0.415780E+03
     4486.00  0.852255E-02 0.164354E+00 0.314989E+02 0.403056E+03
     4511.00  0.771715E-02 0.167839E+00 0.308756E+02 0.372568E+03
     4536.00  0.694991E-02 0.171549E+00 0.302462E+02 0.343896E+03
     4561.00  0.622117E-02 0.175487E+00 0.296116E+02 0.316957E+03
     4586.00  0.553124E-02 0.179653E+00 0.289727E+02 0.291670E+03
     4611.00  0.488043E-02 0.184051E+00 0.283305E+02 0.267956E+03
     4636.00  0.426905E-02 0.188681E+00 0.276856E+02 0.245740E+03
     4661.00  0.369740E-02 0.193545E+00 0.270391E+02 0.224950E+03
     4686.00  0.316575E-02 0.198645E+00 0.263917E+02 0.205517E+03
     4711.00  0.267439E-02 0.203983E+00 0.257441E+02 0.187372E+03
     4736.00  0.222359E-02 0.209560E+00 0.250971E+02 0.170453E+03
     4761.00  0.181361E-02 0.215378E+00 0.244514E+02 0.154696E+03
     4786.00  0.144472E-02 0.221439E+00 0.238077E+02 0.140043E+03
     4811.00  0.111716E-02 0.227744E+00 0.231667E+02 0.126437E+03
     4836.00  0.831177E-03 0.234294E+00 0.225290E+02 0.113822E+03
     4861.00  0.587008E-03 0.241090E+00 0.218951E+02 0.102147E+03
     4886.00  0.384884E-03 0.248134E+00 0.212657E+02 0.913602E+02
     4911.00  0.225028E-03 0.255426E+00 0.206413E+02 0.814144E+02
     4936.00  0.107658E-03 0.262968E+00 0.200224E+02 0.722631E+02
     4961.00  0.329866E-04 0.270759E+00 0.194094E+02 0.638619E+02
     4986.00  0.121823E-05 0.278800E+00 0.188030E+02 0.561686E+02
     5011.00  0.125525E-04 0.287091E+00 0.182034E+02 0.491425E+02
     5036.00  0.671827E-04 0.295632E+00 0.176112E+02 0.427450E+02
     5061.00  0.165296E-03 0.304422E+00 0.170267E+02 0.369389E+02
     5086.00  0.307074E-03 0.313462E+00 0.164503E+02 0.316890E+02
     5111.00  0.492693E-03 0.322749E+00 0.158822E+02 0.269613E+02
     5136.00  0.722322E-03 0.332284E+00 0.153230E+02 0.227237E+02
     5161.00  0.996125E-03 0.342065E+00 0.147727E+02 0.189453E+02
     5186.00  0.131426E-02 0.352090E+00 0.142318E+02 0.155969E+02
     5211.00  0.167689E-02 0.362358E+00 0.137004E+02 0.126504E+02
     5236.00  0.208414E-02 0.372866E+00 0.131788E+02 0.100793E+02
     5261.00  0.253617E-02 0.383611E+00 0.126672E+02 0.785815E+01
     5286.00  0.303312E-02 0.394592E+00 0.121658E+02 0.596290E+01
     5311.00  0.357510E-02 0.405805E+00 0.116748E+02 0.437060E+01
     5336.00  0.416226E-02 0.417247E+00 0.111942E+02 0.305948E+01
     5361.00  0.479470E-02 0.428914E+00 0.107243E+02 0.200884E+01
     5386.00  0.547253E-02 0.440802E+00 0.102652E+02 0.119907E+01
     5411.00  0.619588E-02 0.452907E+00 0.981691E+01 0.611533E+00
     5436.00  0.696483E-02 0.465226E+00 0.937957E+01 0.228601E+00
     5461.00  0.777949E-02 0.477752E+00 0.895323E+01 0.335601E-01
     5511.00  0.954627E-02 0.503409E+00 0.813376E+01 0.144763E+00
     5561.00  0.114969E-01 0.529833E+00 0.735871E+01 0.828742E+00
     5611.00  0.136318E-01 0.556979E+00 0.662809E+01 0.198174E+01
     5661.00  0.159516E-01 0.584792E+00 0.594170E+01 0.351157E+01
     5711.00  0.184566E-01 0.613219E+00 0.529916E+01 0.533669E+01
     5761.00  0.211470E-01 0.642197E+00 0.469990E+01 0.738522E+01
     5811.00  0.240229E-01 0.671664E+00 0.414320E+01 0.959410E+01
     5861.00  0.270845E-01 0.701553E+00 0.362820E+01 0.119083E+02
     5911.00  0.303315E-01 0.731793E+00 0.315392E+01 0.142802E+02
     5961.00  0.337638E-01 0.762311E+00 0.271926E+01 0.166686E+02
     6011.00  0.373811E-01 0.793030E+00 0.232301E+01 0.190384E+02
     6061.00  0.411828E-01 0.823873E+00 0.196390E+01 0.213597E+02
     6111.00  0.451684E-01 0.854759E+00 0.164056E+01 0.236077E+02
     6161.00  0.493371E-01 0.885607E+00 0.135158E+01 0.257618E+02
     6211.00  0.536881E-01 0.916335E+00 0.109548E+01 0.278052E+02
     6261.00  0.582203E-01 0.946858E+00 0.870753E+00 0.297247E+02
     6311.00  0.629325E-01 0.977093E+00 0.675844E+00 0.315100E+02
     6361.00  0.678235E-01 0.100695E+01 0.509188E+00 0.331536E+02
     6411.00  0.728916E-01 0.103636E+01 0.369200E+00 0.346504E+02
     6461.00  0.781353E-01 0.106522E+01 0.254293E+00 0.359972E+02
     6511.00  0.835526E-01 0.109346E+01 0.162878E+00 0.371930E+02
     6561.00  0.891416E-01 0.112099E+01 0.933749E-01 0.382378E+02
     6611.00  0.948999E-01 0.114774E+01 0.442173E-01 0.391334E+02
     6661.00  0.100825E+00 0.117361E+01 0.138595E-01 0.398827E+02
     6711.00  0.106915E+00 0.119855E+01 0.780467E-03 0.404893E+02
     6761.00  0.113166E+00 0.122247E+01 0.348933E-02 0.409577E+02
     6811.00  0.119576E+00 0.124530E+01 0.205294E-01 0.412934E+02
     6861.00  0.126142E+00 0.126698E+01 0.504821E-01 0.415020E+02
     6911.00  0.132859E+00 0.128744E+01 0.919706E-01 0.415896E+02
     6961.00  0.139725E+00 0.130661E+01 0.143663E+00 0.415627E+02
     7011.00  0.146736E+00 0.132445E+01 0.204273E+00 0.414280E+02
     7061.00  0.153887E+00 0.134089E+01 0.272566E+00 0.411923E+02
     7111.00  0.161175E+00 0.135589E+01 0.347359E+00 0.408625E+02
     7161.00  0.168594E+00 0.136940E+01 0.427519E+00 0.404455E+02
     7211.00  0.176141E+00 0.138137E+01 0.511970E+00 0.399480E+02
     7261.00  0.183809E+00 0.139178E+01 0.599691E+00 0.393769E+02
     7311.00  0.191595E+00 0.140059E+01 0.689717E+00 0.387388E+02
     7361.00  0.199492E+00 0.140777E+01 0.781139E+00 0.380401E+02
     7411.00  0.207495E+00 0.141331E+01 0.873106E+00 0.372870E+02
     7511.00  0.223796E+00 0.141936E+01 0.105555E+01 0.356421E+02
     7611.00  0.240448E+00 0.141867E+01 0.123136E+01 0.338495E+02
     7711.00  0.257398E+00 0.141123E+01 0.139573E+01 0.319508E+02
     7811.00  0.274590E+00 0.139713E+01 0.154472E+01 0.299832E+02
     7911.00  0.291964E+00 0.137650E+01 0.167520E+01 0.279798E+02
     8011.00  0.309458E+00 0.134957E+01 0.178483E+01 0.259694E+02
     8111.00  0.327005E+00 0.131664E+01 0.187199E+01 0.239769E+02
     8211.00  0.344538E+00 0.127806E+01 0.193573E+01 0.220231E+02
     8311.00  0.361986E+00 0.123424E+01 0.197571E+01 0.201255E+02
     8411.00  0.379275E+00 0.118566E+01 0.199215E+01 0.182981E+02
     8511.00  0.396331E+00 0.113281E+01 0.198574E+01 0.165521E+02
     8611.00  0.413077E+00 0.107626E+01 0.195762E+01 0.148960E+02
     8711.00  0.429436E+00 0.101658E+01 0.190929E+01 0.133358E+02
     8811.00  0.445331E+00 0.954374E+00 0.184254E+01 0.118755E+02
     8911.00  0.460683E+00 0.890256E+00 0.175942E+01 0.105172E+02
     9011.00  0.475415E+00 0.824852E+00 0.166216E+01 0.926136E+01
     9111.00  0.489449E+00 0.758784E+00 0.155312E+01 0.810722E+01
     9211.00  0.502710E+00 0.692667E+00 0.143475E+01 0.705281E+01
     9311.00  0.515124E+00 0.627103E+00 0.130952E+01 0.609526E+01
     9411.00  0.526621E+00 0.562669E+00 0.117991E+01 0.523090E+01
     9511.00  0.537131E+00 0.499917E+00 0.104833E+01 0.445551E+01
     9611.00  0.546590E+00 0.439361E+00 0.917117E+00 0.376437E+01
     9711.00  0.554936E+00 0.381481E+00 0.788492E+00 0.315245E+01
     9811.00  0.562112E+00 0.326709E+00 0.664528E+00 0.261450E+01
     9911.00  0.568067E+00 0.275434E+00 0.547130E+00 0.214515E+01
    10011.00  0.572755E+00 0.227992E+00 0.438020E+00 0.173899E+01
    10111.00  0.576135E+00 0.184669E+00 0.338716E+00 0.139062E+01
    10211.00  0.578173E+00 0.145694E+00 0.250525E+00 0.109478E+01
    10311.00  0.578842E+00 0.111242E+00 0.174533E+00 0.846311E+00
    10411.00  0.578120E+00 0.814334E-01 0.111604E+00 0.640254E+00
    10511.00  0.575996E+00 0.563320E-01 0.623774E-01 0.471872E+00
    10611.00  0.572462E+00 0.359484E-01 0.272707E-01 0.336669E+00
    10711.00  0.567522E+00 0.202406E-01 0.648526E-02 0.230417E+00
    10811.00  0.561185E+00 0.911641E-02 0.142116E-04 0.149166E+00
    10911.00  0.553470E+00 0.243624E-02 0.765249E-02 0.892572E-01
    11011.00  0.544404E+00 0.162152E-04 0.290091E-01 0.473228E-01
    11111.00  0.534019E+00 0.163187E-02 0.635211E-01 0.202911E-01
    11211.00  0.522358E+00 0.702212E-02 0.110469E+00 0.538243E-02
    11311.00  0.509472E+00 0.158935E-01 0.168992E+00 0.103226E-03
    11411.00  0.495419E+00 0.279246E-01 0.238107E+00 0.223833E-02
    11511.00  0.480264E+00 0.427710E-01 0.316727E+00 0.984064E-02
    11611.00  0.464079E+00 0.600697E-01 0.403678E+00 0.212190E-01
    11711.00  0.446944E+00 0.794442E-01 0.497716E+00 0.349247E-01
    11811.00  0.428945E+00 0.100509E+00 0.597549E+00 0.497369E-01
    11911.00  0.410173E+00 0.122876E+00 0.701852E+00 0.646465E-01
    12011.00  0.390724E+00 0.146155E+00 0.809286E+00 0.788407E-01
    12111.00  0.370702E+00 0.169964E+00 0.918515E+00 0.916856E-01
    12211.00  0.350211E+00 0.193927E+00 0.102822E+01 0.102710E+00
    12311.00  0.329363E+00 0.217686E+00 0.113712E+01 0.111588E+00
    12411.00  0.308269E+00 0.240895E+00 0.124396E+01 0.118122E+00
    12511.00  0.287044E+00 0.263233E+00 0.134759E+01 0.122229E+00
    12611.00  0.265805E+00 0.284399E+00 0.144687E+01 0.123921E+00
    12711.00  0.244670E+00 0.304119E+00 0.154080E+01 0.123293E+00
    12811.00  0.223755E+00 0.322150E+00 0.162843E+01 0.120505E+00
    12911.00  0.203177E+00 0.338276E+00 0.170891E+01 0.115772E+00
    13011.00  0.183051E+00 0.352314E+00 0.178152E+01 0.109351E+00
    13111.00  0.163491E+00 0.364114E+00 0.184562E+01 0.101526E+00
    13211.00  0.144606E+00 0.373559E+00 0.190068E+01 0.926005E-01
    13311.00  0.126503E+00 0.380565E+00 0.194629E+01 0.828852E-01
    13411.00  0.109283E+00 0.385084E+00 0.198216E+01 0.726918E-01
    13511.00  0.930440E-01 0.387096E+00 0.200809E+01 0.623235E-01
    13611.00  0.778761E-01 0.386618E+00 0.202399E+01 0.520694E-01
    13711.00  0.638647E-01 0.383695E+00 0.202990E+01 0.421987E-01
    13811.00  0.510877E-01 0.378401E+00 0.202594E+01 0.329558E-01
    13911.00  0.396155E-01 0.370839E+00 0.201232E+01 0.245573E-01
    14011.00  0.295110E-01 0.361135E+00 0.198936E+01 0.171892E-01
    14111.00  0.208284E-01 0.349439E+00 0.195744E+01 0.110050E-01
    14211.00  0.136135E-01 0.335922E+00 0.191704E+01 0.612473E-02
    14311.00  0.790306E-02 0.320772E+00 0.186869E+01 0.263490E-02
    14411.00  0.372461E-02 0.304192E+00 0.181298E+01 0.588849E-03
    14511.00  0.109633E-02 0.286397E+00 0.175056E+01 0.779220E-05
    14611.00  0.268923E-04 0.267612E+00 0.168214E+01 0.882405E-03
    14711.00  0.515421E-03 0.248068E+00 0.160842E+01 0.317484E-02
    14811.00  0.255151E-02 0.227999E+00 0.153016E+01 0.682112E-02
    14911.00  0.611528E-02 0.207639E+00 0.144814E+01 0.117338E-01
    15011.00  0.111776E-01 0.187223E+00 0.136312E+01 0.178050E-01
    15111.00  0.177001E-01 0.166979E+00 0.127590E+01 0.249094E-01
    15211.00  0.256357E-01 0.147126E+00 0.118723E+01 0.329072E-01
    15311.00  0.349288E-01 0.127878E+00 0.109789E+01 0.416477E-01
    15411.00  0.455157E-01 0.109433E+00 0.100862E+01 0.509726E-01
    15511.00  0.573248E-01 0.919769E-01 0.920115E+00 0.607184E-01
    15611.00  0.702775E-01 0.756807E-01 0.833063E+00 0.707200E-01
    15711.00  0.842886E-01 0.606973E-01 0.748106E+00 0.808135E-01
    15811.00  0.992666E-01 0.471618E-01 0.665841E+00 0.908387E-01
    15911.00  0.115114E+00 0.351896E-01 0.586818E+00 0.100641E+00
    16011.00  0.131731E+00 0.248761E-01 0.511541E+00 0.110076E+00
    16111.00  0.149009E+00 0.162955E-01 0.440457E+00 0.119007E+00
    16211.00  0.166841E+00 0.950115E-02 0.373961E+00 0.127310E+00
    16311.00  0.185113E+00 0.452511E-02 0.312389E+00 0.134876E+00
    16411.00  0.203712E+00 0.137826E-02 0.256023E+00 0.141608E+00
    16511.00  0.222522E+00 0.507828E-04 0.205083E+00 0.147426E+00
    16611.00  0.241428E+00 0.512755E-03 0.159735E+00 0.152264E+00
    16711.00  0.260313E+00 0.271491E-02 0.120087E+00 0.156074E+00
    16811.00  0.279063E+00 0.658962E-02 0.861922E-01 0.158822E+00
    16911.00  0.297564E+00 0.120521E-01 0.580506E-01 0.160490E+00
    17011.00  0.315706E+00 0.190016E-01 0.356103E-01 0.161078E+00
    17111.00  0.333381E+00 0.273231E-01 0.187711E-01 0.160597E+00
    17211.00  0.350484E+00 0.368887E-01 0.738703E-02 0.159074E+00
    17311.00  0.366917E+00 0.475591E-01 0.126964E-02 0.156550E+00
    17411.00  0.382583E+00 0.591859E-01 0.191530E-03 0.153074E+00
    17511.00  0.397393E+00 0.716128E-01 0.389006E-02 0.148709E+00
    17611.00  0.411265E+00 0.846781E-01 0.120712E-01 0.143528E+00
    17711.00  0.424120E+00 0.982156E-01 0.244136E-01 0.137609E+00
    17811.00  0.435888E+00 0.112058E+00 0.405726E-01 0.131039E+00
    17911.00  0.446506E+00 0.126036E+00 0.601844E-01 0.123909E+00
    18011.00  0.455919E+00 0.139984E+00 0.828701E-01 0.116316E+00
    18111.00  0.464078E+00 0.153739E+00 0.108240E+00 0.108358E+00
    18211.00  0.470944E+00 0.167143E+00 0.135897E+00 0.100133E+00
    18311.00  0.476485E+00 0.180043E+00 0.165441E+00 0.917424E-01
    18411.00  0.480676E+00 0.192297E+00 0.196474E+00 0.832828E-01
    18511.00  0.483503E+00 0.203770E+00 0.228599E+00 0.748506E-01
    18611.00  0.484959E+00 0.214340E+00 0.261430E+00 0.665382E-01
    18711.00  0.485044E+00 0.223893E+00 0.294589E+00 0.584332E-01
    18811.00  0.483768E+00 0.232332E+00 0.327714E+00 0.506186E-01
    18911.00  0.481148E+00 0.239572E+00 0.360457E+00 0.431710E-01
    19011.00  0.477209E+00 0.245540E+00 0.392491E+00 0.361604E-01
    19111.00  0.471982E+00 0.250180E+00 0.423508E+00 0.296496E-01
    19311.00  0.457830E+00 0.255328E+00 0.481376E+00 0.183410E-01
    19511.00  0.439084E+00 0.254866E+00 0.532078E+00 0.959154E-02
    19711.00  0.416233E+00 0.248886E+00 0.574056E+00 0.361711E-02
    19911.00  0.389845E+00 0.237709E+00 0.606185E+00 0.504293E-03
    20111.00  0.360549E+00 0.221867E+00 0.627777E+00 0.217126E-03
    20311.00  0.329026E+00 0.202075E+00 0.638574E+00 0.260839E-02
    20511.00  0.295979E+00 0.179199E+00 0.638703E+00 0.743446E-02
    20711.00  0.262126E+00 0.154218E+00 0.628658E+00 0.143728E-01
    20911.00  0.228175E+00 0.128182E+00 0.609229E+00 0.230409E-01
    21111.00  0.194808E+00 0.102174E+00 0.581466E+00 0.330158E-01
    21311.00  0.162671E+00 0.772661E-01 0.546609E+00 0.438540E-01
    21511.00  0.132352E+00 0.544774E-01 0.506030E+00 0.551088E-01
    21711.00  0.104376E+00 0.347420E-01 0.461180E+00 0.663484E-01
    21911.00  0.791884E-01 0.188734E-01 0.413521E+00 0.771693E-01
    22111.00  0.571547E-01 0.753911E-02 0.364486E+00 0.872098E-01
    22311.00  0.385492E-01 0.123882E-02 0.315425E+00 0.961582E-01
    22511.00  0.235554E-01 0.290690E-03 0.267571E+00 0.103761E+00
    22711.00  0.122647E-01 0.482357E-02 0.222005E+00 0.109827E+00
    22911.00  0.467828E-02 0.147763E-01 0.179635E+00 0.114227E+00
    23111.00  0.711822E-03 0.299037E-01 0.141185E+00 0.116896E+00
    23311.00  0.200848E-03 0.497883E-01 0.107180E+00 0.117827E+00
    23511.00  0.290881E-02 0.738582E-01 0.779556E-01 0.117070E+00
    23711.00  0.853611E-02 0.101408E+00 0.536577E-01 0.114722E+00
    23911.00  0.167305E-01 0.131628E+00 0.342619E-01 0.110923E+00
    24111.00  0.270979E-01 0.163626E+00 0.195884E-01 0.105844E+00
    24311.00  0.392143E-01 0.196466E+00 0.932494E-02 0.996841E-01
    24511.00  0.526370E-01 0.229192E+00 0.305105E-02 0.926553E-01
    24711.00  0.669167E-01 0.260863E+00 0.264118E-03 0.849802E-01
    24911.00  0.816084E-01 0.290581E+00 0.405698E-03 0.768806E-01
    25111.00  0.962815E-01 0.317514E+00 0.288735E-02 0.685713E-01
    25311.00  0.110530E+00 0.340926E+00 0.711495E-02 0.602546E-01
    25511.00  0.123981E+00 0.360192E+00 0.125108E-01 0.521138E-01
    25711.00  0.136301E+00 0.374820E+00 0.185331E-01 0.443101E-01
    25911.00  0.147202E+00 0.384453E+00 0.246918E-01 0.369790E-01
    26111.00  0.156447E+00 0.388887E+00 0.305614E-01 0.302289E-01
    26311.00  0.163852E+00 0.388061E+00 0.357897E-01 0.241400E-01
    26511.00  0.169287E+00 0.382068E+00 0.401035E-01 0.187649E-01
    26711.00  0.172676E+00 0.371136E+00 0.433094E-01 0.141292E-01
    26911.00  0.173998E+00 0.355628E+00 0.452939E-01 0.102341E-01
         IE==>      4            5            6            7
        1.00  0.553447E-14 0.169403E-13 0.922404E-12 0.118711E-11
        2.00  0.395799E-11 0.121606E-10 0.659450E-09 0.853458E-09
        3.00  0.184074E-09 0.567681E-09 0.306591E-07 0.399010E-07
        4.00  0.279637E-08 0.865642E-08 0.465613E-06 0.609350E-06
        5.00  0.230125E-07 0.715046E-07 0.383049E-05 0.504090E-05
        6.00  0.128513E-06 0.400814E-06 0.213845E-04 0.282983E-04
        7.00  0.549218E-06 0.171934E-05 0.913600E-04 0.121568E-03
        8.00  0.192981E-05 0.606389E-05 0.320911E-03 0.429382E-03
        9.00  0.583916E-05 0.184164E-04 0.970691E-03 0.130596E-02
       10.00  0.157028E-04 0.497104E-04 0.260956E-02 0.353023E-02
       11.00  0.383867E-04 0.121973E-03 0.637718E-02 0.867451E-02
       12.00  0.867327E-04 0.276615E-03 0.144042E-01 0.197007E-01
       13.00  0.183429E-03 0.587178E-03 0.304533E-01 0.418789E-01
       14.00  0.366692E-03 0.117817E-02 0.608590E-01 0.841492E-01
       15.00  0.698324E-03 0.225199E-02 0.115861E+00 0.161073E+00
       16.00  0.127485E-02 0.412638E-02 0.211445E+00 0.295554E+00
       17.00  0.224253E-02 0.728526E-02 0.371821E+00 0.522542E+00
       18.00  0.381714E-02 0.124463E-01 0.632688E+00 0.893968E+00
       19.00  0.630968E-02 0.206492E-01 0.104548E+01 0.148521E+01
       20.00  0.101592E-01 0.333692E-01 0.168276E+01 0.240341E+01
       21.00  0.159739E-01 0.526607E-01 0.264503E+01 0.379809E+01
       22.00  0.245826E-01 0.813375E-01 0.406915E+01 0.587439E+01
       23.00  0.370978E-01 0.123195E+00 0.613873E+01 0.890955E+01
       24.00  0.549916E-01 0.183284E+00 0.909666E+01 0.132731E+02
       25.00  0.801890E-01 0.268239E+00 0.132603E+02 0.194516E+02
       26.00  0.115177E+00 0.386678E+00 0.190397E+02 0.280779E+02
       27.00  0.163135E+00 0.549675E+00 0.269585E+02 0.399668E+02
       28.00  0.228088E+00 0.771320E+00 0.376795E+02 0.561570E+02
       29.00  0.315087E+00 0.106938E+01 0.520337E+02 0.779605E+02
       30.00  0.430412E+00 0.146607E+01 0.710545E+02 0.107020E+03
       31.00  0.581815E+00 0.198893E+01 0.960163E+02 0.145379E+03
       32.00  0.778797E+00 0.267192E+01 0.128480E+03 0.195554E+03
       33.00  0.103292E+01 0.355652E+01 0.170345E+03 0.260634E+03
       34.00  0.135815E+01 0.469318E+01 0.223905E+03 0.344376E+03
       35.00  0.177131E+01 0.614284E+01 0.291918E+03 0.451327E+03
       36.00  0.229247E+01 0.797873E+01 0.377678E+03 0.586961E+03
       37.00  0.294554E+01 0.102884E+02 0.485102E+03 0.757832E+03
       38.00  0.375877E+01 0.131758E+02 0.618820E+03 0.971746E+03
       39.00  0.476547E+01 0.167643E+02 0.784286E+03 0.123796E+04
       40.00  0.600469E+01 0.211990E+02 0.987890E+03 0.156740E+04
       42.00  0.937052E+01 0.333176E+02 0.154057E+04 0.246954E+04
       44.00  0.143163E+02 0.512646E+02 0.235203E+04 0.380913E+04
       46.00  0.214548E+02 0.773711E+02 0.352235E+04 0.576295E+04
       48.00  0.315915E+02 0.114732E+03 0.518292E+04 0.856639E+04
       50.00  0.457727E+02 0.167406E+03 0.750419E+04 0.125292E+05
       52.00  0.653428E+02 0.240661E+03 0.107050E+05 0.180544E+05
       54.00  0.920123E+02 0.341261E+03 0.150635E+05 0.256615E+05
       56.00  0.127938E+03 0.477824E+03 0.209300E+05 0.360140E+05
       58.00  0.175820E+03 0.661231E+03 0.287425E+05 0.499521E+05
       60.00  0.239007E+03 0.905118E+03 0.390439E+05 0.685323E+05
       62.00  0.321630E+03 0.122646E+04 0.525031E+05 0.930726E+05
       64.00  0.428748E+03 0.164623E+04 0.699381E+05 0.125207E+06
       66.00  0.566518E+03 0.219023E+04 0.923440E+05 0.166951E+06
       68.00  0.742400E+03 0.288995E+04 0.120924E+06 0.220771E+06
       70.00  0.965379E+03 0.378373E+04 0.157128E+06 0.289677E+06
       72.00  0.124624E+04 0.491796E+04 0.202691E+06 0.377322E+06
       74.00  0.159785E+04 0.634856E+04 0.259685E+06 0.488121E+06
       76.00  0.203555E+04 0.814270E+04 0.330575E+06 0.627391E+06
       78.00  0.257754E+04 0.103808E+05 0.418281E+06 0.801508E+06
       80.00  0.324532E+04 0.131587E+05 0.526252E+06 0.101810E+07
       82.00  0.406426E+04 0.165906E+05 0.658551E+06 0.128626E+07
       84.00  0.506419E+04 0.208117E+05 0.819951E+06 0.161680E+07
       86.00  0.628008E+04 0.259819E+05 0.101604E+07 0.202254E+07
       88.00  0.775288E+04 0.322903E+05 0.125337E+07 0.251862E+07
       90.00  0.953044E+04 0.399591E+05 0.153955E+07 0.312295E+07
       92.00  0.116685E+05 0.492500E+05 0.188349E+07 0.385661E+07
       94.00  0.142322E+05 0.604702E+05 0.229552E+07 0.474442E+07
       96.00  0.172969E+05 0.739798E+05 0.278768E+07 0.581553E+07
       98.00  0.209507E+05 0.902006E+05 0.337391E+07 0.710416E+07
      100.00  0.252957E+05 0.109626E+06 0.407043E+07 0.865043E+07
      102.00  0.304502E+05 0.132835E+06 0.489602E+07 0.105014E+08
      104.00  0.365518E+05 0.160500E+06 0.587243E+07 0.127120E+08
      106.00  0.437597E+05 0.193410E+06 0.702489E+07 0.153467E+08
      108.00  0.522587E+05 0.232485E+06 0.838259E+07 0.184807E+08
      110.00  0.622629E+05 0.278798E+06 0.997933E+07 0.222023E+08
      112.00  0.740203E+05 0.333603E+06 0.118543E+08 0.266141E+08
      114.00  0.878189E+05 0.398362E+06 0.140528E+08 0.318367E+08
      116.00  0.103992E+06 0.474784E+06 0.166274E+08 0.380108E+08
      118.00  0.122928E+06 0.564864E+06 0.196391E+08 0.453011E+08
      122.00  0.170959E+06 0.795724E+06 0.272680E+08 0.640346E+08
      126.00  0.236467E+06 0.111479E+07 0.376544E+08 0.900128E+08
      130.00  0.325631E+06 0.155479E+07 0.517666E+08 0.125956E+09
      134.00  0.446866E+06 0.216085E+07 0.709211E+08 0.175622E+09
      138.00  0.611687E+06 0.299538E+07 0.969159E+08 0.244224E+09
      142.00  0.835907E+06 0.414508E+07 0.132217E+09 0.339021E+09
      146.00  0.114132E+07 0.573073E+07 0.180215E+09 0.470150E+09
      150.00  0.155801E+07 0.792094E+07 0.245587E+09 0.651796E+09
      154.00  0.212741E+07 0.109506E+08 0.334757E+09 0.903767E+09
      158.00  0.290601E+07 0.151440E+08 0.456474E+09 0.125350E+10
      162.00  0.396930E+07 0.209408E+08 0.622395E+09 0.173826E+10
      166.00  0.541376E+07 0.289129E+08 0.847380E+09 0.240673E+10
      170.00  0.735240E+07 0.397476E+08 0.114876E+10 0.331774E+10
      174.00  0.989405E+07 0.541408E+08 0.154309E+10 0.453137E+10
      178.00  0.130923E+08 0.725124E+08 0.203817E+10 0.608511E+10
      182.00  0.168556E+08 0.944863E+08 0.261923E+10 0.794979E+10
      186.00  0.208507E+08 0.118290E+09 0.323404E+10 0.997806E+10
      190.00  0.244977E+08 0.140650E+09 0.379265E+10 0.118940E+11
      194.00  0.271649E+08 0.157829E+09 0.419770E+10 0.133797E+11
      198.00  0.284800E+08 0.167441E+09 0.439260E+10 0.142289E+11
      202.00  0.284899E+08 0.169487E+09 0.438577E+10 0.144371E+11
      206.00  0.275423E+08 0.165788E+09 0.423177E+10 0.141549E+11
      210.00  0.260533E+08 0.158672E+09 0.399526E+10 0.135784E+11
      214.00  0.243544E+08 0.150066E+09 0.372747E+10 0.128709E+11
      218.00  0.226546E+08 0.141224E+09 0.346051E+10 0.121393E+11
      222.00  0.210629E+08 0.132831E+09 0.321103E+10 0.114426E+11
      226.00  0.196244E+08 0.125196E+09 0.298579E+10 0.108079E+11
      230.00  0.183488E+08 0.118412E+09 0.278612E+10 0.102436E+11
      234.00  0.172280E+08 0.112460E+09 0.261065E+10 0.974866E+10
      238.00  0.162468E+08 0.107273E+09 0.245695E+10 0.931768E+10
      242.00  0.153877E+08 0.102763E+09 0.232227E+10 0.894363E+10
      246.00  0.146342E+08 0.988451E+08 0.220399E+10 0.861932E+10
      250.00  0.139710E+08 0.954381E+08 0.209974E+10 0.833806E+10
      254.00  0.133850E+08 0.924707E+08 0.200746E+10 0.809389E+10
      258.00  0.128649E+08 0.898811E+08 0.192539E+10 0.788163E+10
      262.00  0.124013E+08 0.876164E+08 0.185206E+10 0.769684E+10
      266.00  0.119860E+08 0.856317E+08 0.178620E+10 0.753576E+10
      270.00  0.116123E+08 0.838891E+08 0.172678E+10 0.739517E+10
      274.00  0.112745E+08 0.823562E+08 0.167291E+10 0.727235E+10
      282.00  0.106881E+08 0.798137E+08 0.157895E+10 0.707107E+10
      290.00  0.101964E+08 0.778290E+08 0.149960E+10 0.691709E+10
      298.00  0.977728E+07 0.762738E+08 0.143148E+10 0.679952E+10
      306.00  0.941472E+07 0.750533E+08 0.137209E+10 0.671029E+10
      314.00  0.909669E+07 0.740963E+08 0.131958E+10 0.664333E+10
      322.00  0.881411E+07 0.733482E+08 0.127256E+10 0.659398E+10
      330.00  0.856004E+07 0.727667E+08 0.122997E+10 0.655861E+10
      338.00  0.832906E+07 0.723184E+08 0.119098E+10 0.653435E+10
      346.00  0.811698E+07 0.719772E+08 0.115495E+10 0.651895E+10
      354.00  0.792053E+07 0.717225E+08 0.112137E+10 0.651062E+10
      362.00  0.773711E+07 0.715375E+08 0.108986E+10 0.650792E+10
      370.00  0.756460E+07 0.714087E+08 0.106009E+10 0.650966E+10
      378.00  0.740128E+07 0.713245E+08 0.103180E+10 0.651484E+10
      386.00  0.724578E+07 0.712758E+08 0.100478E+10 0.652266E+10
      394.00  0.709698E+07 0.712548E+08 0.978870E+09 0.653244E+10
      402.00  0.695398E+07 0.712555E+08 0.953931E+09 0.654365E+10
      410.00  0.681606E+07 0.712729E+08 0.929853E+09 0.655585E+10
      418.00  0.668259E+07 0.713025E+08 0.906543E+09 0.656865E+10
      426.00  0.655306E+07 0.713407E+08 0.883925E+09 0.658172E+10
      434.00  0.642706E+07 0.713845E+08 0.861935E+09 0.659479E+10
      442.00  0.630424E+07 0.714313E+08 0.840522E+09 0.660766E+10
      450.00  0.618432E+07 0.714792E+08 0.819645E+09 0.662014E+10
      458.00  0.606710E+07 0.715268E+08 0.799271E+09 0.663210E+10
      466.00  0.595236E+07 0.715727E+08 0.779370E+09 0.664344E+10
      474.00  0.583995E+07 0.716157E+08 0.759916E+09 0.665403E+10
      482.00  0.572972E+07 0.716546E+08 0.740886E+09 0.666380E+10
      490.00  0.562155E+07 0.716888E+08 0.722263E+09 0.667268E+10
      498.00  0.551533E+07 0.717175E+08 0.704030E+09 0.668060E+10
      506.00  0.541099E+07 0.717404E+08 0.686175E+09 0.668753E+10
      514.00  0.530847E+07 0.717571E+08 0.668686E+09 0.669345E+10
      522.00  0.520768E+07 0.717671E+08 0.651553E+09 0.669832E+10
      530.00  0.510857E+07 0.717701E+08 0.634764E+09 0.670212E+10
      538.00  0.501108E+07 0.717656E+08 0.618310E+09 0.670481E+10
      546.00  0.491516E+07 0.717535E+08 0.602183E+09 0.670637E+10
      554.00  0.482076E+07 0.717336E+08 0.586375E+09 0.670680E+10
      562.00  0.472786E+07 0.717057E+08 0.570881E+09 0.670609E+10
      570.00  0.463642E+07 0.716698E+08 0.555694E+09 0.670425E+10
      578.00  0.454641E+07 0.716259E+08 0.540810E+09 0.670127E+10
      586.00  0.445781E+07 0.715738E+08 0.526222E+09 0.669715E+10
      596.00  0.434898E+07 0.714971E+08 0.508395E+09 0.669039E+10
      606.00  0.424226E+07 0.714075E+08 0.491014E+09 0.668185E+10
      616.00  0.413759E+07 0.713050E+08 0.474069E+09 0.667157E+10
      626.00  0.403496E+07 0.711900E+08 0.457555E+09 0.665957E+10
      636.00  0.393434E+07 0.710626E+08 0.441464E+09 0.664589E+10
      646.00  0.383569E+07 0.709232E+08 0.425789E+09 0.663057E+10
      656.00  0.373899E+07 0.707718E+08 0.410523E+09 0.661363E+10
      666.00  0.364421E+07 0.706086E+08 0.395658E+09 0.659510E+10
      676.00  0.355132E+07 0.704340E+08 0.381187E+09 0.657503E+10
      686.00  0.346029E+07 0.702482E+08 0.367105E+09 0.655346E+10
      696.00  0.337112E+07 0.700516E+08 0.353406E+09 0.653044E+10
      706.00  0.328376E+07 0.698446E+08 0.340082E+09 0.650602E+10
      716.00  0.319819E+07 0.696272E+08 0.327126E+09 0.648021E+10
      726.00  0.311439E+07 0.693997E+08 0.314532E+09 0.645306E+10
      736.00  0.303232E+07 0.691623E+08 0.302293E+09 0.642459E+10
      746.00  0.295196E+07 0.689151E+08 0.290401E+09 0.639485E+10
      756.00  0.287328E+07 0.686586E+08 0.278852E+09 0.636387E+10
      766.00  0.279626E+07 0.683929E+08 0.267637E+09 0.633169E+10
      776.00  0.272087E+07 0.681182E+08 0.256752E+09 0.629834E+10
      786.00  0.264709E+07 0.678347E+08 0.246188E+09 0.626386E+10
      796.00  0.257487E+07 0.675425E+08 0.235940E+09 0.622827E+10
      806.00  0.250420E+07 0.672418E+08 0.226001E+09 0.619160E+10
      816.00  0.243506E+07 0.669330E+08 0.216365E+09 0.615389E+10
      826.00  0.236742E+07 0.666161E+08 0.207026E+09 0.611518E+10
      836.00  0.230125E+07 0.662916E+08 0.197979E+09 0.607551E+10
      846.00  0.223654E+07 0.659595E+08 0.189216E+09 0.603491E+10
      856.00  0.217326E+07 0.656202E+08 0.180734E+09 0.599341E+10
      866.00  0.211139E+07 0.652739E+08 0.172524E+09 0.595105E+10
      876.00  0.205090E+07 0.649207E+08 0.164582E+09 0.590786E+10
      886.00  0.199177E+07 0.645609E+08 0.156902E+09 0.586388E+10
      896.00  0.193398E+07 0.641947E+08 0.149479E+09 0.581914E+10
      906.00  0.187751E+07 0.638225E+08 0.142306E+09 0.577369E+10
      916.00  0.182234E+07 0.634445E+08 0.135380E+09 0.572756E+10
      926.00  0.176844E+07 0.630609E+08 0.128693E+09 0.568077E+10
      936.00  0.171580E+07 0.626719E+08 0.122241E+09 0.563337E+10
      946.00  0.166438E+07 0.622777E+08 0.116019E+09 0.558537E+10
      956.00  0.161418E+07 0.618784E+08 0.110020E+09 0.553681E+10
      966.00  0.156516E+07 0.614743E+08 0.104241E+09 0.548773E+10
      976.00  0.151731E+07 0.610656E+08 0.986746E+08 0.543814E+10
      986.00  0.147060E+07 0.606526E+08 0.933175E+08 0.538809E+10
      996.00  0.142502E+07 0.602353E+08 0.881642E+08 0.533760E+10
     1006.00  0.138055E+07 0.598140E+08 0.832097E+08 0.528670E+10
     1016.00  0.133716E+07 0.593889E+08 0.784492E+08 0.523541E+10
     1026.00  0.129483E+07 0.589600E+08 0.738778E+08 0.518376E+10
     1036.00  0.125355E+07 0.585275E+08 0.694908E+08 0.513177E+10
     1046.00  0.121329E+07 0.580917E+08 0.652838E+08 0.507947E+10
     1056.00  0.117403E+07 0.576527E+08 0.612520E+08 0.502688E+10
     1066.00  0.113577E+07 0.572107E+08 0.573912E+08 0.497404E+10
     1076.00  0.109847E+07 0.567659E+08 0.536968E+08 0.492097E+10
     1086.00  0.106212E+07 0.563185E+08 0.501646E+08 0.486769E+10
     1096.00  0.102671E+07 0.558685E+08 0.467903E+08 0.481423E+10
     1106.00  0.992207E+06 0.554162E+08 0.435697E+08 0.476060E+10
     1116.00  0.958601E+06 0.549617E+08 0.404986E+08 0.470683E+10
     1126.00  0.925875E+06 0.545052E+08 0.375730E+08 0.465295E+10
     1136.00  0.894010E+06 0.540468E+08 0.347890E+08 0.459898E+10
     1146.00  0.862992E+06 0.535868E+08 0.321426E+08 0.454494E+10
     1156.00  0.832802E+06 0.531253E+08 0.296301E+08 0.449085E+10
     1166.00  0.803425E+06 0.526624E+08 0.272476E+08 0.443674E+10
     1176.00  0.774844E+06 0.521983E+08 0.249914E+08 0.438262E+10
     1186.00  0.747043E+06 0.517332E+08 0.228578E+08 0.432851E+10
     1196.00  0.720006E+06 0.512670E+08 0.208433E+08 0.427443E+10
     1206.00  0.693718E+06 0.508001E+08 0.189444E+08 0.422040E+10
     1216.00  0.668162E+06 0.503324E+08 0.171575E+08 0.416644E+10
     1226.00  0.643325E+06 0.498643E+08 0.154794E+08 0.411257E+10
     1236.00  0.619190E+06 0.493957E+08 0.139067E+08 0.405880E+10
     1246.00  0.595745E+06 0.489268E+08 0.124361E+08 0.400515E+10
     1256.00  0.572973E+06 0.484578E+08 0.110645E+08 0.395163E+10
     1266.00  0.550860E+06 0.479887E+08 0.978867E+07 0.389826E+10
     1276.00  0.529393E+06 0.475196E+08 0.860560E+07 0.384506E+10
     1286.00  0.508557E+06 0.470507E+08 0.751227E+07 0.379203E+10
     1296.00  0.488338E+06 0.465820E+08 0.650574E+07 0.373920E+10
     1306.00  0.468724E+06 0.461136E+08 0.558312E+07 0.368657E+10
     1316.00  0.449701E+06 0.456457E+08 0.474159E+07 0.363415E+10
     1326.00  0.431257E+06 0.451784E+08 0.397839E+07 0.358197E+10
     1336.00  0.413378E+06 0.447117E+08 0.329081E+07 0.353004E+10
     1346.00  0.396052E+06 0.442458E+08 0.267620E+07 0.347836E+10
     1356.00  0.379266E+06 0.437808E+08 0.213197E+07 0.342695E+10
     1366.00  0.363010E+06 0.433167E+08 0.165557E+07 0.337582E+10
     1376.00  0.347269E+06 0.428537E+08 0.124454E+07 0.332498E+10
     1386.00  0.332033E+06 0.423917E+08 0.896443E+06 0.327444E+10
     1396.00  0.317291E+06 0.419310E+08 0.608907E+06 0.322421E+10
     1406.00  0.303031E+06 0.414716E+08 0.379616E+06 0.317430E+10
     1416.00  0.289242E+06 0.410136E+08 0.206301E+06 0.312472E+10
     1426.00  0.275913E+06 0.405571E+08 0.867491E+05 0.307549E+10
     1436.00  0.263033E+06 0.401022E+08 0.187957E+05 0.302660E+10
     1446.00  0.250592E+06 0.396490E+08 0.328212E+03 0.297808E+10
     1456.00  0.238579E+06 0.391974E+08 0.292841E+05 0.292992E+10
     1466.00  0.226984E+06 0.387477E+08 0.103650E+06 0.288213E+10
     1476.00  0.215796E+06 0.382998E+08 0.221460E+06 0.283472E+10
     1486.00  0.205007E+06 0.378538E+08 0.380798E+06 0.278770E+10
     1496.00  0.194606E+06 0.374098E+08 0.579794E+06 0.274108E+10
     1506.00  0.184584E+06 0.369680E+08 0.816624E+06 0.269485E+10
     1516.00  0.174932E+06 0.365282E+08 0.108951E+07 0.264904E+10
     1526.00  0.165640E+06 0.360906E+08 0.139672E+07 0.260363E+10
     1536.00  0.156699E+06 0.356553E+08 0.173657E+07 0.255865E+10
     1546.00  0.148100E+06 0.352223E+08 0.210741E+07 0.251408E+10
     1556.00  0.139835E+06 0.347917E+08 0.250765E+07 0.246995E+10
     1566.00  0.131895E+06 0.343634E+08 0.293571E+07 0.242624E+10
     1576.00  0.124272E+06 0.339376E+08 0.339008E+07 0.238297E+10
     1586.00  0.116956E+06 0.335142E+08 0.386929E+07 0.234013E+10
     1596.00  0.109942E+06 0.330934E+08 0.437190E+07 0.229774E+10
     1606.00  0.103220E+06 0.326752E+08 0.489651E+07 0.225580E+10
     1616.00  0.967820E+05 0.322596E+08 0.544176E+07 0.221430E+10
     1626.00  0.906215E+05 0.318467E+08 0.600633E+07 0.217325E+10
     1636.00  0.847306E+05 0.314365E+08 0.658895E+07 0.213266E+10
     1646.00  0.791020E+05 0.310290E+08 0.718835E+07 0.209252E+10
     1656.00  0.737284E+05 0.306243E+08 0.780334E+07 0.205284E+10
     1666.00  0.686029E+05 0.302224E+08 0.843273E+07 0.201362E+10
     1676.00  0.637184E+05 0.298234E+08 0.907539E+07 0.197485E+10
     1686.00  0.590684E+05 0.294272E+08 0.973020E+07 0.193655E+10
     1696.00  0.546461E+05 0.290339E+08 0.103961E+08 0.189872E+10
     1706.00  0.504450E+05 0.286435E+08 0.110721E+08 0.186135E+10
     1716.00  0.464588E+05 0.282562E+08 0.117571E+08 0.182444E+10
     1726.00  0.426813E+05 0.278718E+08 0.124501E+08 0.178800E+10
     1736.00  0.391064E+05 0.274904E+08 0.131504E+08 0.175202E+10
     1746.00  0.357280E+05 0.271121E+08 0.138568E+08 0.171651E+10
     1756.00  0.325403E+05 0.267369E+08 0.145685E+08 0.168147E+10
     1766.00  0.295376E+05 0.263647E+08 0.152848E+08 0.164689E+10
     1776.00  0.267142E+05 0.259956E+08 0.160047E+08 0.161278E+10
     1786.00  0.240646E+05 0.256297E+08 0.167274E+08 0.157913E+10
     1796.00  0.215836E+05 0.252668E+08 0.174523E+08 0.154595E+10
     1806.00  0.192657E+05 0.249072E+08 0.181785E+08 0.151323E+10
     1816.00  0.171058E+05 0.245506E+08 0.189053E+08 0.148097E+10
     1826.00  0.150990E+05 0.241973E+08 0.196321E+08 0.144917E+10
     1836.00  0.132402E+05 0.238472E+08 0.203582E+08 0.141783E+10
     1846.00  0.115246E+05 0.235003E+08 0.210829E+08 0.138695E+10
     1856.00  0.994756E+04 0.231565E+08 0.218057E+08 0.135652E+10
     1866.00  0.850441E+04 0.228160E+08 0.225259E+08 0.132655E+10
     1876.00  0.719064E+04 0.224787E+08 0.232430E+08 0.129703E+10
     1886.00  0.600185E+04 0.221447E+08 0.239563E+08 0.126796E+10
     1896.00  0.493373E+04 0.218138E+08 0.246655E+08 0.123933E+10
     1906.00  0.398206E+04 0.214862E+08 0.253700E+08 0.121116E+10
     1916.00  0.314272E+04 0.211618E+08 0.260693E+08 0.118342E+10
     1926.00  0.241171E+04 0.208407E+08 0.267629E+08 0.115613E+10
     1936.00  0.178508E+04 0.205228E+08 0.274505E+08 0.112927E+10
     1946.00  0.125901E+04 0.202081E+08 0.281316E+08 0.110285E+10
     1956.00  0.829745E+03 0.198967E+08 0.288058E+08 0.107686E+10
     1966.00  0.493631E+03 0.195885E+08 0.294727E+08 0.105130E+10
     1976.00  0.247097E+03 0.192835E+08 0.301319E+08 0.102616E+10
     1986.00  0.866599E+02 0.189818E+08 0.307831E+08 0.100145E+10
     1996.00  0.891925E+01 0.186833E+08 0.314260E+08 0.977158E+09
     2006.00  0.105576E+02 0.183880E+08 0.320603E+08 0.953282E+09
     2016.00  0.883388E+02 0.180959E+08 0.326856E+08 0.929821E+09
     2026.00  0.239106E+03 0.178071E+08 0.333018E+08 0.906769E+09
     2036.00  0.459782E+03 0.175214E+08 0.339084E+08 0.884125E+09
     2046.00  0.747366E+03 0.172389E+08 0.345054E+08 0.861883E+09
     2056.00  0.109893E+04 0.169597E+08 0.350924E+08 0.840042E+09
     2066.00  0.151163E+04 0.166836E+08 0.356693E+08 0.818597E+09
     2076.00  0.198269E+04 0.164106E+08 0.362358E+08 0.797544E+09
     2086.00  0.250939E+04 0.161409E+08 0.367917E+08 0.776881E+09
     2096.00  0.308911E+04 0.158743E+08 0.373369E+08 0.756602E+09
     2106.00  0.371927E+04 0.156108E+08 0.378713E+08 0.736704E+09
     2116.00  0.439739E+04 0.153505E+08 0.383945E+08 0.717184E+09
     2126.00  0.512102E+04 0.150932E+08 0.389066E+08 0.698037E+09
     2136.00  0.588781E+04 0.148391E+08 0.394074E+08 0.679260E+09
     2146.00  0.669545E+04 0.145880E+08 0.398968E+08 0.660849E+09
     2156.00  0.754169E+04 0.143401E+08 0.403747E+08 0.642799E+09
     2166.00  0.842438E+04 0.140952E+08 0.408409E+08 0.625107E+09
     2176.00  0.934138E+04 0.138533E+08 0.412955E+08 0.607769E+09
     2186.00  0.102907E+05 0.136145E+08 0.417383E+08 0.590780E+09
     2196.00  0.112702E+05 0.133786E+08 0.421693E+08 0.574137E+09
     2206.00  0.122780E+05 0.131458E+08 0.425884E+08 0.557835E+09
     2216.00  0.133123E+05 0.129160E+08 0.429956E+08 0.541870E+09
     2226.00  0.143712E+05 0.126891E+08 0.433908E+08 0.526239E+09
     2236.00  0.154529E+05 0.124651E+08 0.437740E+08 0.510936E+09
     2246.00  0.165557E+05 0.122441E+08 0.441452E+08 0.495957E+09
     2256.00  0.176779E+05 0.120259E+08 0.445044E+08 0.481300E+09
     2266.00  0.188179E+05 0.118107E+08 0.448516E+08 0.466958E+09
     2276.00  0.199742E+05 0.115983E+08 0.451868E+08 0.452930E+09
     2286.00  0.211451E+05 0.113888E+08 0.455100E+08 0.439209E+09
     2296.00  0.223293E+05 0.111821E+08 0.458212E+08 0.425792E+09
     2306.00  0.235253E+05 0.109782E+08 0.461205E+08 0.412674E+09
     2316.00  0.247316E+05 0.107771E+08 0.464079E+08 0.399853E+09
     2326.00  0.259471E+05 0.105788E+08 0.466833E+08 0.387322E+09
     2336.00  0.271703E+05 0.103832E+08 0.469470E+08 0.375079E+09
     2346.00  0.284000E+05 0.101904E+08 0.471988E+08 0.363119E+09
     2356.00  0.296350E+05 0.100002E+08 0.474390E+08 0.351438E+09
     2366.00  0.308741E+05 0.981275E+07 0.476675E+08 0.340031E+09
     2376.00  0.321162E+05 0.962794E+07 0.478844E+08 0.328896E+09
     2386.00  0.333602E+05 0.944578E+07 0.480898E+08 0.318027E+09
     2396.00  0.346050E+05 0.926623E+07 0.482838E+08 0.307421E+09
     2406.00  0.358497E+05 0.908929E+07 0.484664E+08 0.297073E+09
     2416.00  0.370933E+05 0.891492E+07 0.486378E+08 0.286980E+09
     2426.00  0.383347E+05 0.874311E+07 0.487980E+08 0.277137E+09
     2436.00  0.395731E+05 0.857383E+07 0.489472E+08 0.267541E+09
     2446.00  0.408077E+05 0.840706E+07 0.490853E+08 0.258187E+09
     2456.00  0.420375E+05 0.824277E+07 0.492126E+08 0.249071E+09
     2466.00  0.432618E+05 0.808095E+07 0.493292E+08 0.240191E+09
     2476.00  0.444798E+05 0.792157E+07 0.494351E+08 0.231541E+09
     2486.00  0.456907E+05 0.776461E+07 0.495304E+08 0.223117E+09
     2496.00  0.468938E+05 0.761005E+07 0.496154E+08 0.214917E+09
     2506.00  0.480885E+05 0.745786E+07 0.496900E+08 0.206935E+09
     2516.00  0.492741E+05 0.730802E+07 0.497545E+08 0.199169E+09
     2526.00  0.504499E+05 0.716051E+07 0.498089E+08 0.191615E+09
     2536.00  0.516154E+05 0.701530E+07 0.498534E+08 0.184268E+09
     2546.00  0.527699E+05 0.687237E+07 0.498881E+08 0.177125E+09
     2556.00  0.539130E+05 0.673170E+07 0.499131E+08 0.170182E+09
     2566.00  0.550441E+05 0.659327E+07 0.499286E+08 0.163436E+09
     2576.00  0.561627E+05 0.645704E+07 0.499347E+08 0.156883E+09
     2586.00  0.572683E+05 0.632301E+07 0.499315E+08 0.150519E+09
     2596.00  0.583605E+05 0.619113E+07 0.499191E+08 0.144342E+09
     2606.00  0.594389E+05 0.606140E+07 0.498978E+08 0.138346E+09
     2616.00  0.605029E+05 0.593379E+07 0.498676E+08 0.132529E+09
     2626.00  0.615524E+05 0.580827E+07 0.498286E+08 0.126888E+09
     2636.00  0.625868E+05 0.568482E+07 0.497811E+08 0.121418E+09
     2646.00  0.636059E+05 0.556342E+07 0.497252E+08 0.116117E+09
     2656.00  0.646093E+05 0.544404E+07 0.496609E+08 0.110981E+09
     2666.00  0.655968E+05 0.532667E+07 0.495886E+08 0.106007E+09
     2676.00  0.665680E+05 0.521127E+07 0.495082E+08 0.101191E+09
     2686.00  0.675227E+05 0.509784E+07 0.494199E+08 0.965307E+08
     2696.00  0.684606E+05 0.498633E+07 0.493239E+08 0.920223E+08
     2706.00  0.693815E+05 0.487674E+07 0.492204E+08 0.876628E+08
     2716.00  0.702853E+05 0.476903E+07 0.491094E+08 0.834490E+08
     2726.00  0.711716E+05 0.466319E+07 0.489911E+08 0.793778E+08
     2736.00  0.720403E+05 0.455919E+07 0.488657E+08 0.754461E+08
     2746.00  0.728913E+05 0.445701E+07 0.487333E+08 0.716510E+08
     2756.00  0.737244E+05 0.435663E+07 0.485940E+08 0.679894E+08
     2766.00  0.745395E+05 0.425802E+07 0.484481E+08 0.644584E+08
     2776.00  0.753364E+05 0.416117E+07 0.482956E+08 0.610550E+08
     2786.00  0.761151E+05 0.406604E+07 0.481367E+08 0.577765E+08
     2796.00  0.768755E+05 0.397263E+07 0.479715E+08 0.546199E+08
     2806.00  0.776175E+05 0.388091E+07 0.478002E+08 0.515824E+08
     2816.00  0.783410E+05 0.379085E+07 0.476230E+08 0.486613E+08
     2826.00  0.790460E+05 0.370244E+07 0.474399E+08 0.458539E+08
     2836.00  0.797324E+05 0.361565E+07 0.472511E+08 0.431575E+08
     2846.00  0.804002E+05 0.353046E+07 0.470568E+08 0.405693E+08
     2856.00  0.810493E+05 0.344685E+07 0.468570E+08 0.380869E+08
     2866.00  0.816799E+05 0.336480E+07 0.466521E+08 0.357076E+08
     2876.00  0.822918E+05 0.328429E+07 0.464419E+08 0.334289E+08
     2886.00  0.828851E+05 0.320530E+07 0.462268E+08 0.312483E+08
     2896.00  0.834598E+05 0.312780E+07 0.460069E+08 0.291633E+08
     2906.00  0.840160E+05 0.305178E+07 0.457822E+08 0.271716E+08
     2916.00  0.845537E+05 0.297721E+07 0.455530E+08 0.252707E+08
     2926.00  0.850729E+05 0.290408E+07 0.453193E+08 0.234582E+08
     2936.00  0.855737E+05 0.283237E+07 0.450814E+08 0.217320E+08
     2946.00  0.860562E+05 0.276205E+07 0.448392E+08 0.200896E+08
     2956.00  0.865204E+05 0.269310E+07 0.445931E+08 0.185289E+08
     2966.00  0.869664E+05 0.262551E+07 0.443430E+08 0.170476E+08
     2976.00  0.873942E+05 0.255926E+07 0.440891E+08 0.156437E+08
     2986.00  0.878041E+05 0.249432E+07 0.438316E+08 0.143149E+08
     2996.00  0.881961E+05 0.243068E+07 0.435705E+08 0.130591E+08
     3006.00  0.885702E+05 0.236832E+07 0.433060E+08 0.118744E+08
     3016.00  0.889267E+05 0.230722E+07 0.430382E+08 0.107587E+08
     3026.00  0.892656E+05 0.224735E+07 0.427673E+08 0.970995E+07
     3036.00  0.895870E+05 0.218871E+07 0.424933E+08 0.872629E+07
     3046.00  0.898912E+05 0.213127E+07 0.422165E+08 0.780576E+07
     3056.00  0.901781E+05 0.207502E+07 0.419368E+08 0.694650E+07
     3066.00  0.904481E+05 0.201993E+07 0.416544E+08 0.614665E+07
     3076.00  0.907011E+05 0.196600E+07 0.413695E+08 0.540440E+07
     3086.00  0.909374E+05 0.191319E+07 0.410821E+08 0.471798E+07
     3096.00  0.911571E+05 0.186150E+07 0.407923E+08 0.408562E+07
     3106.00  0.913603E+05 0.181090E+07 0.405004E+08 0.350563E+07
     3116.00  0.915473E+05 0.176138E+07 0.402062E+08 0.297632E+07
     3126.00  0.917181E+05 0.171292E+07 0.399101E+08 0.249604E+07
     3136.00  0.918730E+05 0.166551E+07 0.396121E+08 0.206319E+07
     3146.00  0.920121E+05 0.161913E+07 0.393122E+08 0.167617E+07
     3156.00  0.921357E+05 0.157375E+07 0.390107E+08 0.133343E+07
     3166.00  0.922438E+05 0.152938E+07 0.387075E+08 0.103346E+07
     3176.00  0.923367E+05 0.148598E+07 0.384029E+08 0.774755E+06
     3186.00  0.924145E+05 0.144354E+07 0.380969E+08 0.555867E+06
     3196.00  0.924775E+05 0.140205E+07 0.377895E+08 0.375365E+06
     3206.00  0.925258E+05 0.136149E+07 0.374810E+08 0.231848E+06
     3216.00  0.925597E+05 0.132185E+07 0.371713E+08 0.123947E+06
     3226.00  0.925792E+05 0.128310E+07 0.368606E+08 0.503214E+05
     3236.00  0.925846E+05 0.124524E+07 0.365490E+08 0.965992E+04
     3246.00  0.925762E+05 0.120825E+07 0.362366E+08 0.679566E+03
     3256.00  0.925540E+05 0.117212E+07 0.359234E+08 0.221257E+05
     3266.00  0.925183E+05 0.113682E+07 0.356096E+08 0.727714E+05
     3276.00  0.924693E+05 0.110235E+07 0.352951E+08 0.151417E+06
     3286.00  0.924072E+05 0.106870E+07 0.349802E+08 0.256892E+06
     3296.00  0.923322E+05 0.103583E+07 0.346648E+08 0.388048E+06
     3306.00  0.922445E+05 0.100376E+07 0.343492E+08 0.543769E+06
     3316.00  0.921443E+05 0.972446E+06 0.340332E+08 0.722962E+06
     3326.00  0.920317E+05 0.941892E+06 0.337171E+08 0.924558E+06
     3336.00  0.919071E+05 0.912079E+06 0.334009E+08 0.114752E+07
     3346.00  0.917707E+05 0.882995E+06 0.330847E+08 0.139082E+07
     3356.00  0.916225E+05 0.854626E+06 0.327685E+08 0.165348E+07
     3366.00  0.914628E+05 0.826959E+06 0.324525E+08 0.193453E+07
     3376.00  0.912919E+05 0.799980E+06 0.321366E+08 0.223303E+07
     3386.00  0.911099E+05 0.773679E+06 0.318210E+08 0.254804E+07
     3396.00  0.909170E+05 0.748041E+06 0.315057E+08 0.287869E+07
     3406.00  0.907134E+05 0.723054E+06 0.311908E+08 0.322409E+07
     3416.00  0.904994E+05 0.698706E+06 0.308763E+08 0.358339E+07
     3426.00  0.902751E+05 0.674986E+06 0.305623E+08 0.395577E+07
     3436.00  0.900407E+05 0.651881E+06 0.302490E+08 0.434041E+07
     3446.00  0.897965E+05 0.629379E+06 0.299362E+08 0.473654E+07
     3456.00  0.895426E+05 0.607468E+06 0.296241E+08 0.514339E+07
     3466.00  0.892793E+05 0.586139E+06 0.293128E+08 0.556021E+07
     3476.00  0.890067E+05 0.565378E+06 0.290023E+08 0.598629E+07
     3486.00  0.887250E+05 0.545175E+06 0.286927E+08 0.642092E+07
     3496.00  0.884345E+05 0.525519E+06 0.283839E+08 0.686342E+07
     3506.00  0.881354E+05 0.506399E+06 0.280761E+08 0.731313E+07
     3516.00  0.878277E+05 0.487805E+06 0.277693E+08 0.776940E+07
     3526.00  0.875118E+05 0.469726E+06 0.274636E+08 0.823161E+07
     3536.00  0.871878E+05 0.452151E+06 0.271590E+08 0.869915E+07
     3546.00  0.868559E+05 0.435070E+06 0.268555E+08 0.917144E+07
     3556.00  0.865163E+05 0.418473E+06 0.265533E+08 0.964790E+07
     3566.00  0.861692E+05 0.402351E+06 0.262522E+08 0.101280E+08
     3576.00  0.858147E+05 0.386693E+06 0.259525E+08 0.106111E+08
     3586.00  0.854532E+05 0.371491E+06 0.256540E+08 0.110969E+08
     3596.00  0.850847E+05 0.356733E+06 0.253569E+08 0.115847E+08
     3606.00  0.847094E+05 0.342412E+06 0.250613E+08 0.120741E+08
     3616.00  0.843276E+05 0.328517E+06 0.247670E+08 0.125646E+08
     3626.00  0.839394E+05 0.315040E+06 0.244743E+08 0.130557E+08
     3636.00  0.835449E+05 0.301972E+06 0.241830E+08 0.135471E+08
     3646.00  0.831445E+05 0.289304E+06 0.238933E+08 0.140383E+08
     3656.00  0.827382E+05 0.277028E+06 0.236052E+08 0.145288E+08
     3666.00  0.823262E+05 0.265134E+06 0.233186E+08 0.150184E+08
     3676.00  0.819087E+05 0.253614E+06 0.230338E+08 0.155066E+08
     3686.00  0.814859E+05 0.242461E+06 0.227505E+08 0.159930E+08
     3696.00  0.810579E+05 0.231666E+06 0.224690E+08 0.164774E+08
     3706.00  0.806250E+05 0.221221E+06 0.221892E+08 0.169592E+08
     3716.00  0.801872E+05 0.211118E+06 0.219112E+08 0.174384E+08
     3726.00  0.797447E+05 0.201349E+06 0.216349E+08 0.179144E+08
     3736.00  0.792977E+05 0.191907E+06 0.213604E+08 0.183871E+08
     3746.00  0.788465E+05 0.182784E+06 0.210877E+08 0.188561E+08
     3756.00  0.783910E+05 0.173974E+06 0.208169E+08 0.193212E+08
     3766.00  0.779315E+05 0.165468E+06 0.205480E+08 0.197821E+08
     3776.00  0.774682E+05 0.157259E+06 0.202809E+08 0.202385E+08
     3786.00  0.770011E+05 0.149341E+06 0.200158E+08 0.206902E+08
     3796.00  0.765305E+05 0.141707E+06 0.197525E+08 0.211370E+08
     3806.00  0.760565E+05 0.134349E+06 0.194912E+08 0.215787E+08
     3816.00  0.755793E+05 0.127262E+06 0.192319E+08 0.220150E+08
     3826.00  0.750989E+05 0.120439E+06 0.189746E+08 0.224457E+08
     3836.00  0.746156E+05 0.113872E+06 0.187192E+08 0.228707E+08
     3846.00  0.741294E+05 0.107557E+06 0.184658E+08 0.232898E+08
     3856.00  0.736406E+05 0.101486E+06 0.182145E+08 0.237028E+08
     3866.00  0.731492E+05 0.956535E+05 0.179651E+08 0.241095E+08
     3876.00  0.726554E+05 0.900539E+05 0.177178E+08 0.245098E+08
     3886.00  0.721593E+05 0.846810E+05 0.174726E+08 0.249036E+08
     3896.00  0.716610E+05 0.795290E+05 0.172294E+08 0.252907E+08
     3906.00  0.711608E+05 0.745923E+05 0.169883E+08 0.256710E+08
     3916.00  0.706586E+05 0.698653E+05 0.167493E+08 0.260444E+08
     3926.00  0.701547E+05 0.653425E+05 0.165123E+08 0.264107E+08
     3936.00  0.696492E+05 0.610186E+05 0.162775E+08 0.267699E+08
     3946.00  0.691422E+05 0.568883E+05 0.160447E+08 0.271219E+08
     3956.00  0.686337E+05 0.529465E+05 0.158140E+08 0.274666E+08
     3966.00  0.681240E+05 0.491880E+05 0.155855E+08 0.278038E+08
     3976.00  0.676132E+05 0.456079E+05 0.153591E+08 0.281336E+08
     3986.00  0.671013E+05 0.422013E+05 0.151348E+08 0.284559E+08
     3996.00  0.665884E+05 0.389634E+05 0.149126E+08 0.287706E+08
     4006.00  0.660748E+05 0.358895E+05 0.146925E+08 0.290776E+08
     4016.00  0.655604E+05 0.329751E+05 0.144745E+08 0.293769E+08
     4026.00  0.650454E+05 0.302155E+05 0.142587E+08 0.296685E+08
     4036.00  0.645300E+05 0.276064E+05 0.140450E+08 0.299524E+08
     4046.00  0.640141E+05 0.251434E+05 0.138335E+08 0.302284E+08
     4056.00  0.634980E+05 0.228224E+05 0.136240E+08 0.304966E+08
     4066.00  0.629816E+05 0.206390E+05 0.134167E+08 0.307570E+08
     4076.00  0.624652E+05 0.185892E+05 0.132115E+08 0.310095E+08
     4086.00  0.619488E+05 0.166691E+05 0.130084E+08 0.312542E+08
     4096.00  0.614325E+05 0.148746E+05 0.128075E+08 0.314910E+08
     4106.00  0.609163E+05 0.132020E+05 0.126087E+08 0.317199E+08
     4116.00  0.604005E+05 0.116475E+05 0.124120E+08 0.319410E+08
     4126.00  0.598850E+05 0.102074E+05 0.122174E+08 0.321542E+08
     4136.00  0.593700E+05 0.887809E+04 0.120249E+08 0.323597E+08
     4146.00  0.588556E+05 0.765605E+04 0.118345E+08 0.325573E+08
     4156.00  0.583417E+05 0.653781E+04 0.116462E+08 0.327471E+08
     4166.00  0.578286E+05 0.552000E+04 0.114600E+08 0.329291E+08
     4176.00  0.573163E+05 0.459930E+04 0.112758E+08 0.331034E+08
     4186.00  0.568048E+05 0.377247E+04 0.110938E+08 0.332700E+08
     4196.00  0.562942E+05 0.303634E+04 0.109138E+08 0.334290E+08
     4206.00  0.557847E+05 0.238782E+04 0.107359E+08 0.335803E+08
     4216.00  0.552763E+05 0.182386E+04 0.105601E+08 0.337240E+08
     4226.00  0.547691E+05 0.134150E+04 0.103863E+08 0.338602E+08
     4236.00  0.542630E+05 0.937841E+03 0.102145E+08 0.339890E+08
     4246.00  0.537583E+05 0.610052E+03 0.100448E+08 0.341103E+08
     4256.00  0.532550E+05 0.355360E+03 0.987708E+07 0.342242E+08
     4266.00  0.527531E+05 0.171058E+03 0.971140E+07 0.343308E+08
     4276.00  0.522527E+05 0.544994E+02 0.954772E+07 0.344301E+08
     4286.00  0.517538E+05 0.310048E+01 0.938603E+07 0.345223E+08
     4296.00  0.512566E+05 0.143364E+02 0.922634E+07 0.346073E+08
     4306.00  0.507610E+05 0.857417E+02 0.906861E+07 0.346853E+08
     4316.00  0.502672E+05 0.214909E+03 0.891285E+07 0.347562E+08
     4326.00  0.497752E+05 0.399488E+03 0.875905E+07 0.348202E+08
     4336.00  0.492850E+05 0.637185E+03 0.860719E+07 0.348774E+08
     4346.00  0.487967E+05 0.925760E+03 0.845726E+07 0.349278E+08
     4356.00  0.483103E+05 0.126303E+04 0.830925E+07 0.349715E+08
     4366.00  0.478259E+05 0.164686E+04 0.816315E+07 0.350085E+08
     4376.00  0.473436E+05 0.207518E+04 0.801894E+07 0.350390E+08
     4386.00  0.468634E+05 0.254595E+04 0.787662E+07 0.350630E+08
     4396.00  0.463853E+05 0.305721E+04 0.773617E+07 0.350806E+08
     4406.00  0.459094E+05 0.360702E+04 0.759758E+07 0.350919E+08
     4416.00  0.454358E+05 0.419350E+04 0.746084E+07 0.350970E+08
     4426.00  0.449644E+05 0.481484E+04 0.732594E+07 0.350960E+08
     4436.00  0.444953E+05 0.546924E+04 0.719285E+07 0.350889E+08
     4446.00  0.440285E+05 0.615496E+04 0.706158E+07 0.350758E+08
     4456.00  0.435642E+05 0.687033E+04 0.693210E+07 0.350569E+08
     4466.00  0.431022E+05 0.761369E+04 0.680440E+07 0.350321E+08
     4476.00  0.426427E+05 0.838344E+04 0.667847E+07 0.350017E+08
     4486.00  0.421857E+05 0.917803E+04 0.655429E+07 0.349656E+08
     4511.00  0.410543E+05 0.112633E+05 0.625143E+07 0.348515E+08
     4536.00  0.399391E+05 0.134718E+05 0.595923E+07 0.347043E+08
     4561.00  0.388406E+05 0.157826E+05 0.567747E+07 0.345254E+08
     4586.00  0.377592E+05 0.181761E+05 0.540593E+07 0.343163E+08
     4611.00  0.366952E+05 0.206343E+05 0.514437E+07 0.340784E+08
     4636.00  0.356490E+05 0.231402E+05 0.489258E+07 0.338131E+08
     4661.00  0.346207E+05 0.256784E+05 0.465031E+07 0.335220E+08
     4686.00  0.336107E+05 0.282345E+05 0.441734E+07 0.332064E+08
     4711.00  0.326191E+05 0.307955E+05 0.419343E+07 0.328678E+08
     4736.00  0.316462E+05 0.333493E+05 0.397835E+07 0.325075E+08
     4761.00  0.306920E+05 0.358848E+05 0.377188E+07 0.321270E+08
     4786.00  0.297566E+05 0.383919E+05 0.357376E+07 0.317276E+08
     4811.00  0.288402E+05 0.408616E+05 0.338379E+07 0.313106E+08
     4836.00  0.279427E+05 0.432856E+05 0.320172E+07 0.308774E+08
     4861.00  0.270642E+05 0.456564E+05 0.302733E+07 0.304292E+08
     4886.00  0.262047E+05 0.479674E+05 0.286038E+07 0.299673E+08
     4911.00  0.253642E+05 0.502126E+05 0.270067E+07 0.294929E+08
     4936.00  0.245425E+05 0.523869E+05 0.254797E+07 0.290071E+08
     4961.00  0.237397E+05 0.544856E+05 0.240205E+07 0.285112E+08
     4986.00  0.229557E+05 0.565049E+05 0.226271E+07 0.280063E+08
     5011.00  0.221902E+05 0.584412E+05 0.212972E+07 0.274934E+08
     5036.00  0.214433E+05 0.602917E+05 0.200289E+07 0.269736E+08
     5061.00  0.207147E+05 0.620540E+05 0.188200E+07 0.264478E+08
     5086.00  0.200044E+05 0.637262E+05 0.176685E+07 0.259172E+08
     5111.00  0.193121E+05 0.653069E+05 0.165725E+07 0.253825E+08
     5136.00  0.186376E+05 0.667950E+05 0.155299E+07 0.248448E+08
     5161.00  0.179808E+05 0.681898E+05 0.145389E+07 0.243048E+08
     5186.00  0.173415E+05 0.694909E+05 0.135975E+07 0.237634E+08
     5211.00  0.167193E+05 0.706983E+05 0.127040E+07 0.232214E+08
     5236.00  0.161142E+05 0.718123E+05 0.118566E+07 0.226795E+08
     5261.00  0.155258E+05 0.728334E+05 0.110534E+07 0.221385E+08
     5286.00  0.149539E+05 0.737624E+05 0.102928E+07 0.215989E+08
     5311.00  0.143983E+05 0.746002E+05 0.957312E+06 0.210616E+08
     5336.00  0.138587E+05 0.753482E+05 0.889270E+06 0.205270E+08
     5361.00  0.133348E+05 0.760077E+05 0.824996E+06 0.199957E+08
     5386.00  0.128264E+05 0.765802E+05 0.764335E+06 0.194683E+08
     5411.00  0.123332E+05 0.770675E+05 0.707136E+06 0.189452E+08
     5436.00  0.118549E+05 0.774714E+05 0.653254E+06 0.184271E+08
     5461.00  0.113912E+05 0.777940E+05 0.602545E+06 0.179142E+08
     5511.00  0.105066E+05 0.782033E+05 0.510101E+06 0.169059E+08
     5561.00  0.967703E+04 0.783131E+05 0.428748E+06 0.159234E+08
     5611.00  0.890026E+04 0.781422E+05 0.357493E+06 0.149692E+08
     5661.00  0.817397E+04 0.777101E+05 0.295407E+06 0.140452E+08
     5711.00  0.749584E+04 0.770367E+05 0.241621E+06 0.131534E+08
     5761.00  0.686358E+04 0.761421E+05 0.195327E+06 0.122949E+08
     5811.00  0.627494E+04 0.750464E+05 0.155771E+06 0.114708E+08
     5861.00  0.572771E+04 0.737692E+05 0.122255E+06 0.106817E+08
     5911.00  0.521970E+04 0.723301E+05 0.941340E+05 0.992817E+07
     5961.00  0.474880E+04 0.707476E+05 0.708121E+05 0.921028E+07
     6011.00  0.431294E+04 0.690400E+05 0.517412E+05 0.852799E+07
     6061.00  0.391012E+04 0.672248E+05 0.364184E+05 0.788106E+07
     6111.00  0.353840E+04 0.653184E+05 0.243834E+05 0.726904E+07
     6161.00  0.319592E+04 0.633365E+05 0.152161E+05 0.669134E+07
     6211.00  0.288086E+04 0.612941E+05 0.853408E+04 0.614726E+07
     6261.00  0.259151E+04 0.592049E+05 0.399069E+04 0.563594E+07
     6311.00  0.232621E+04 0.570820E+05 0.127231E+04 0.515646E+07
     6361.00  0.208336E+04 0.549372E+05 0.963091E+02 0.470778E+07
     6411.00  0.186146E+04 0.527817E+05 0.208901E+03 0.428884E+07
     6461.00  0.165907E+04 0.506255E+05 0.138305E+04 0.389850E+07
     6511.00  0.147481E+04 0.484780E+05 0.341648E+04 0.353557E+07
     6561.00  0.130739E+04 0.463473E+05 0.612977E+04 0.319886E+07
     6611.00  0.115557E+04 0.442412E+05 0.936456E+04 0.288715E+07
     6661.00  0.101820E+04 0.421662E+05 0.129818E+05 0.259922E+07
     6711.00  0.894159E+03 0.401283E+05 0.168602E+05 0.233385E+07
     6761.00  0.782430E+03 0.381327E+05 0.208944E+05 0.208982E+07
     6811.00  0.682035E+03 0.361840E+05 0.249941E+05 0.186594E+07
     6861.00  0.592058E+03 0.342860E+05 0.290820E+05 0.166102E+07
     6911.00  0.511643E+03 0.324420E+05 0.330931E+05 0.147393E+07
     6961.00  0.439986E+03 0.306545E+05 0.369730E+05 0.130353E+07
     7011.00  0.376338E+03 0.289259E+05 0.406774E+05 0.114875E+07
     7061.00  0.319999E+03 0.272577E+05 0.441705E+05 0.100853E+07
     7111.00  0.270316E+03 0.256511E+05 0.474241E+05 0.881860E+06
     7161.00  0.226683E+03 0.241069E+05 0.504172E+05 0.767769E+06
     7211.00  0.188538E+03 0.226256E+05 0.531347E+05 0.665330E+06
     7261.00  0.155359E+03 0.212072E+05 0.555669E+05 0.573655E+06
     7311.00  0.126662E+03 0.198515E+05 0.577086E+05 0.491903E+06
     7361.00  0.102002E+03 0.185581E+05 0.595587E+05 0.419273E+06
     7411.00  0.809658E+02 0.173260E+05 0.611194E+05 0.355009E+06
     7511.00  0.482828E+02 0.150423E+05 0.633963E+05 0.248763E+06
     7611.00  0.259375E+02 0.129906E+05 0.646075E+05 0.167953E+06
     7711.00  0.116858E+02 0.111587E+05 0.648480E+05 0.108005E+06
     7811.00  0.366008E+01 0.953307E+04 0.642288E+05 0.649462E+05
     7911.00  0.319583E+00 0.809900E+04 0.628689E+05 0.353638E+05
     8011.00  0.404692E+00 0.684136E+04 0.608894E+05 0.163521E+05
     8111.00  0.289652E+01 0.574488E+04 0.584082E+05 0.546512E+04
     8211.00  0.698068E+01 0.479451E+04 0.555372E+05 0.666755E+03
     8311.00  0.120153E+02 0.397561E+04 0.523793E+05 0.282840E+03
     8411.00  0.175028E+02 0.327424E+04 0.490279E+05 0.295531E+04
     8511.00  0.230655E+02 0.267720E+04 0.455653E+05 0.759933E+04
     8611.00  0.284246E+02 0.217220E+04 0.420629E+05 0.133638E+05
     8711.00  0.333814E+02 0.174783E+04 0.385813E+05 0.195955E+05
     8811.00  0.378023E+02 0.139370E+04 0.351707E+05 0.258064E+05
     8911.00  0.416052E+02 0.110032E+04 0.318717E+05 0.316453E+05
     9011.00  0.447485E+02 0.859174E+03 0.287160E+05 0.368723E+05
     9111.00  0.472218E+02 0.662619E+03 0.257274E+05 0.413372E+05
     9211.00  0.490381E+02 0.503886E+03 0.229225E+05 0.449599E+05
     9311.00  0.502278E+02 0.377003E+03 0.203119E+05 0.477150E+05
     9411.00  0.508332E+02 0.276742E+03 0.179010E+05 0.496178E+05
     9511.00  0.509045E+02 0.198559E+03 0.156907E+05 0.507136E+05
     9611.00  0.504966E+02 0.138531E+03 0.136784E+05 0.510677E+05
     9711.00  0.496664E+02 0.932941E+02 0.118585E+05 0.507585E+05
     9811.00  0.484708E+02 0.599877E+02 0.102232E+05 0.498713E+05
     9911.00  0.469656E+02 0.361942E+02 0.876309E+04 0.484938E+05
    10011.00  0.452041E+02 0.198880E+02 0.746737E+04 0.467126E+05
    10111.00  0.432361E+02 0.938564E+01 0.632461E+04 0.446108E+05
    10211.00  0.411081E+02 0.330041E+01 0.532291E+04 0.422654E+05
    10311.00  0.388625E+02 0.501106E+00 0.445028E+04 0.397472E+05
    10411.00  0.365375E+02 0.747495E-01 0.369483E+04 0.371193E+05
    10511.00  0.341676E+02 0.129333E+01 0.304501E+04 0.344372E+05
    10611.00  0.317828E+02 0.358429E+01 0.248972E+04 0.317485E+05
    10711.00  0.294099E+02 0.650461E+01 0.201845E+04 0.290936E+05
    10811.00  0.270716E+02 0.971823E+01 0.162136E+04 0.265056E+05
    10911.00  0.247874E+02 0.129765E+02 0.128928E+04 0.240113E+05
    11011.00  0.225737E+02 0.161013E+02 0.101383E+04 0.216313E+05
    11111.00  0.204441E+02 0.189709E+02 0.787313E+03 0.193809E+05
    11211.00  0.184093E+02 0.215082E+02 0.602812E+03 0.172708E+05
    11311.00  0.164781E+02 0.236701E+02 0.454102E+03 0.153075E+05
    11411.00  0.146566E+02 0.254396E+02 0.335644E+03 0.134940E+05
    11511.00  0.129496E+02 0.268189E+02 0.242545E+03 0.118305E+05
    11611.00  0.113597E+02 0.278240E+02 0.170513E+03 0.103146E+05
    11711.00  0.988821E+01 0.284800E+02 0.115813E+03 0.894204E+04
    11811.00  0.853524E+01 0.288181E+02 0.752223E+02 0.770704E+04
    11911.00  0.729955E+01 0.288725E+02 0.459783E+02 0.660265E+04
    12011.00  0.617903E+01 0.286784E+02 0.257368E+02 0.562110E+04
    12111.00  0.517065E+01 0.282709E+02 0.125244E+02 0.475409E+04
    12211.00  0.427068E+01 0.276834E+02 0.469645E+01 0.399300E+04
    12311.00  0.347476E+01 0.269475E+02 0.896215E+00 0.332914E+04
    12411.00  0.277802E+01 0.260919E+02 0.176745E-01 0.275386E+04
    12511.00  0.217519E+01 0.251425E+02 0.117082E+01 0.225871E+04
    12611.00  0.166066E+01 0.241225E+02 0.365019E+01 0.183555E+04
    12711.00  0.122858E+01 0.230519E+02 0.690646E+01 0.147663E+04
    12811.00  0.872927E+00 0.219483E+02 0.105211E+02 0.117463E+04
    12911.00  0.587576E+00 0.208267E+02 0.141837E+02 0.922733E+03
    13011.00  0.366352E+00 0.196994E+02 0.176727E+02 0.714602E+03
    13111.00  0.203097E+00 0.185770E+02 0.208378E+02 0.544434E+03
    13211.00  0.917148E-01 0.174680E+02 0.235854E+02 0.406936E+03
    13311.00  0.262207E-01 0.163793E+02 0.258661E+02 0.297326E+03
    13411.00  0.784548E-03 0.153164E+02 0.276640E+02 0.211311E+03
    13511.00  0.976788E-02 0.142837E+02 0.289880E+02 0.145071E+03
    13611.00  0.477591E-01 0.132843E+02 0.298645E+02 0.952283E+02
    13711.00  0.109604E+00 0.123208E+02 0.303317E+02 0.588225E+02
    13811.00  0.190431E+00 0.113948E+02 0.304345E+02 0.332792E+02
    13911.00  0.285678E+00 0.105075E+02 0.302216E+02 0.163792E+02
    14011.00  0.391106E+00 0.965965E+01 0.297421E+02 0.622705E+01
    14111.00  0.502817E+00 0.885155E+01 0.290435E+02 0.122006E+01
    14211.00  0.617265E+00 0.808331E+01 0.281709E+02 0.180768E-01
    14311.00  0.731264E+00 0.735481E+01 0.271652E+02 0.151438E+01
    14411.00  0.841988E+00 0.666575E+01 0.260632E+02 0.480809E+01
    14511.00  0.946980E+00 0.601573E+01 0.248970E+02 0.917817E+01
    14611.00  0.104414E+01 0.540427E+01 0.236942E+02 0.140593E+02
    14711.00  0.113172E+01 0.483080E+01 0.224779E+02 0.190194E+02
    14811.00  0.120832E+01 0.429471E+01 0.212671E+02 0.237394E+02
    14911.00  0.127286E+01 0.379534E+01 0.200767E+02 0.279948E+02
    15011.00  0.132460E+01 0.333200E+01 0.189186E+02 0.316388E+02
    15111.00  0.136308E+01 0.290393E+01 0.178014E+02 0.345878E+02
    15211.00  0.138812E+01 0.251034E+01 0.167312E+02 0.368085E+02
    15311.00  0.139980E+01 0.215039E+01 0.157118E+02 0.383060E+02
    15411.00  0.139844E+01 0.182319E+01 0.147454E+02 0.391151E+02
    15511.00  0.138456E+01 0.152775E+01 0.138324E+02 0.392906E+02
    15611.00  0.135887E+01 0.126304E+01 0.129722E+02 0.389017E+02
    15711.00  0.132225E+01 0.102794E+01 0.121633E+02 0.380254E+02
    15811.00  0.127568E+01 0.821265E+00 0.114035E+02 0.367420E+02
    15911.00  0.122029E+01 0.641732E+00 0.106900E+02 0.351315E+02
    16011.00  0.115726E+01 0.487984E+00 0.100198E+02 0.332709E+02
    16111.00  0.108785E+01 0.358583E+00 0.938962E+01 0.312321E+02
    16211.00  0.101332E+01 0.252017E+00 0.879630E+01 0.290799E+02
    16311.00  0.934991E+00 0.166705E+00 0.823658E+01 0.268722E+02
    16411.00  0.854133E+00 0.101007E+00 0.770733E+01 0.246585E+02
    16511.00  0.772003E+00 0.532311E-01 0.720560E+01 0.224803E+02
    16611.00  0.689811E+00 0.216524E-01 0.672867E+01 0.203715E+02
    16711.00  0.608704E+00 0.452081E-02 0.627407E+01 0.183584E+02
    16811.00  0.529751E+00 0.789430E-04 0.583958E+01 0.164606E+02
    16911.00  0.453935E+00 0.657712E-02 0.542332E+01 0.146917E+02
    17011.00  0.382141E+00 0.222898E-01 0.502368E+01 0.130597E+02
    17111.00  0.315149E+00 0.455318E-01 0.463934E+01 0.115681E+02
    17211.00  0.253630E+00 0.746747E-01 0.426932E+01 0.102169E+02
    17311.00  0.198137E+00 0.108162E+00 0.391290E+01 0.900253E+01
    17411.00  0.149112E+00 0.144524E+00 0.356962E+01 0.791947E+01
    17511.00  0.106878E+00 0.182390E+00 0.323931E+01 0.696027E+01
    17611.00  0.716460E-01 0.220501E+00 0.292200E+01 0.611633E+01
    17711.00  0.435163E-01 0.257722E+00 0.261794E+01 0.537830E+01
    17811.00  0.224839E-01 0.293043E+00 0.232753E+01 0.473656E+01
    17911.00  0.844396E-02 0.325594E+00 0.205133E+01 0.418146E+01
    18011.00  0.119940E-02 0.354641E+00 0.178999E+01 0.370363E+01
    18111.00  0.468574E-03 0.379592E+00 0.154423E+01 0.329414E+01
    18211.00  0.589400E-02 0.399995E+00 0.131479E+01 0.294466E+01
    18311.00  0.170516E-01 0.415537E+00 0.110240E+01 0.264750E+01
    18411.00  0.334602E-01 0.426033E+00 0.907765E+00 0.239567E+01
    18511.00  0.545915E-01 0.431430E+00 0.731492E+00 0.218289E+01
    18611.00  0.798798E-01 0.431788E+00 0.574084E+00 0.200356E+01
    18711.00  0.108732E+00 0.427275E+00 0.435906E+00 0.185271E+01
    18811.00  0.140536E+00 0.418158E+00 0.317162E+00 0.172597E+01
    18911.00  0.174673E+00 0.404788E+00 0.217875E+00 0.161948E+01
    19011.00  0.210522E+00 0.387584E+00 0.137871E+00 0.152984E+01
    19111.00  0.247472E+00 0.367026E+00 0.767731E-01 0.145407E+01
    19311.00  0.322316E+00 0.317981E+00 0.874151E-02 0.133384E+01
    19511.00  0.394749E+00 0.262139E+00 0.665670E-02 0.124095E+01
    19711.00  0.460867E+00 0.204082E+00 0.604295E-01 0.116128E+01
    19911.00  0.517453E+00 0.148111E+00 0.157600E+00 0.108379E+01
    20111.00  0.562057E+00 0.979551E-01 0.284156E+00 0.100030E+01
    20311.00  0.593046E+00 0.565488E-01 0.425499E+00 0.905641E+00
    20511.00  0.609585E+00 0.258996E-01 0.567439E+00 0.797685E+00
    20711.00  0.611606E+00 0.704189E-02 0.697151E+00 0.677424E+00
    20911.00  0.599720E+00 0.669174E-04 0.803972E+00 0.548706E+00
    21111.00  0.575127E+00 0.422016E-02 0.880015E+00 0.417744E+00
    21311.00  0.539500E+00 0.180478E-01 0.920513E+00 0.292331E+00
    21511.00  0.494855E+00 0.395761E-01 0.923907E+00 0.180875E+00
    21711.00  0.443443E+00 0.665067E-01 0.891687E+00 0.913427E-01
    21911.00  0.387609E+00 0.964093E-01 0.827977E+00 0.302577E-01
    22111.00  0.329699E+00 0.126902E+00 0.738997E+00 0.186692E-02
    22311.00  0.271954E+00 0.155802E+00 0.632358E+00 0.757882E-02
    22511.00  0.216427E+00 0.181251E+00 0.516359E+00 0.457359E-01
    22711.00  0.164920E+00 0.201791E+00 0.399265E+00 0.111740E+00
    22911.00  0.118936E+00 0.216415E+00 0.288675E+00 0.198502E+00
    23111.00  0.796482E-01 0.224580E+00 0.191013E+00 0.297167E+00
    23311.00  0.478822E-01 0.226176E+00 0.111148E+00 0.397994E+00
    23511.00  0.241218E-01 0.221493E+00 0.521936E-01 0.491328E+00
    23711.00  0.851924E-02 0.211147E+00 0.154537E-01 0.568512E+00
    23911.00  0.921098E-03 0.196010E+00 0.522605E-03 0.622681E+00
    24111.00  0.900874E-03 0.177124E+00 0.550030E-02 0.649329E+00
    24311.00  0.779901E-02 0.155630E+00 0.272999E-01 0.646643E+00
    24511.00  0.207668E-01 0.132684E+00 0.620074E-01 0.615528E+00
    24711.00  0.388126E-01 0.109401E+00 0.105262E+00 0.559407E+00
    24911.00  0.608484E-01 0.867961E-01 0.152620E+00 0.483767E+00
    25111.00  0.857352E-01 0.657510E-01 0.199884E+00 0.395559E+00
    25311.00  0.112326E+00 0.469835E-01 0.243370E+00 0.302496E+00
    25511.00  0.139504E+00 0.310348E-01 0.280097E+00 0.212323E+00
    25711.00  0.166218E+00 0.182682E-01 0.307912E+00 0.132150E+00
    25911.00  0.191511E+00 0.887433E-02 0.325523E+00 0.678718E-01
    26111.00  0.214544E+00 0.288634E-02 0.332482E+00 0.237518E-01
    26311.00  0.234610E+00 0.198949E-03 0.329094E+00 0.217287E-02
    26511.00  0.251155E+00 0.591349E-03 0.316306E+00 0.357130E-02
    26711.00  0.263772E+00 0.375144E-02 0.295538E+00 0.265412E-01
    26911.00  0.272213E+00 0.930019E-02 0.268540E+00 0.680851E-01
         IE==>      8            9           10           11
        1.00  0.311256E-10 0.560322E-13 0.104710E-09 0.902007E-09
        2.00  0.222523E-07 0.465990E-10 0.752302E-07 0.642276E-06
        3.00  0.103454E-05 0.249359E-08 0.351479E-05 0.297398E-04
        4.00  0.157110E-04 0.431876E-07 0.536389E-04 0.449811E-03
        5.00  0.129249E-03 0.401928E-06 0.443415E-03 0.368532E-02
        6.00  0.721545E-03 0.252029E-05 0.248738E-02 0.204891E-01
        7.00  0.308257E-02 0.120172E-04 0.106775E-01 0.871711E-01
        8.00  0.108276E-01 0.468442E-04 0.376841E-01 0.304917E+00
        9.00  0.327505E-01 0.156439E-03 0.114525E+00 0.918430E+00
       10.00  0.880425E-01 0.462171E-03 0.309326E+00 0.245861E+01
       11.00  0.215150E+00 0.123594E-02 0.759444E+00 0.598269E+01
       12.00  0.485949E+00 0.304308E-02 0.172330E+01 0.134552E+02
       13.00  0.102736E+01 0.698828E-02 0.366012E+01 0.283242E+02
       14.00  0.205304E+01 0.151201E-01 0.734787E+01 0.563584E+02
       15.00  0.390837E+01 0.310706E-01 0.140520E+02 0.106825E+03
       16.00  0.713247E+01 0.610348E-01 0.257602E+02 0.194097E+03
       17.00  0.125418E+02 0.115226E+00 0.455010E+02 0.339805E+03
       18.00  0.213401E+02 0.209988E+00 0.777681E+02 0.575640E+03
       19.00  0.352619E+02 0.370789E+00 0.129074E+03 0.946957E+03
       20.00  0.567536E+02 0.636385E+00 0.208662E+03 0.151733E+04
       21.00  0.892033E+02 0.106452E+01 0.329410E+03 0.237420E+04
       22.00  0.137225E+03 0.173956E+01 0.508959E+03 0.363588E+04
       23.00  0.207008E+03 0.278269E+01 0.771112E+03 0.545997E+04
       24.00  0.306738E+03 0.436516E+01 0.114754E+04 0.805360E+04
       25.00  0.447113E+03 0.672550E+01 0.167988E+04 0.116855E+05
       26.00  0.641946E+03 0.101915E+02 0.242217E+04 0.167003E+05
       27.00  0.908885E+03 0.152080E+02 0.344391E+04 0.235355E+05
       28.00  0.127026E+04 0.223718E+02 0.483348E+04 0.327403E+05
       29.00  0.175407E+04 0.324752E+02 0.670234E+04 0.449989E+05
       30.00  0.239512E+04 0.465592E+02 0.918984E+04 0.611556E+05
       31.00  0.323633E+04 0.659794E+02 0.124688E+05 0.822445E+05
       32.00  0.433027E+04 0.924853E+02 0.167520E+05 0.109522E+06
       33.00  0.574088E+04 0.128317E+03 0.222997E+05 0.144507E+06
       34.00  0.754541E+04 0.176322E+03 0.294280E+05 0.189020E+06
       35.00  0.983668E+04 0.240089E+03 0.385189E+05 0.245231E+06
       36.00  0.127256E+05 0.324121E+03 0.500311E+05 0.315715E+06
       37.00  0.163439E+05 0.434021E+03 0.645125E+05 0.403511E+06
       38.00  0.208475E+05 0.576725E+03 0.826147E+05 0.512181E+06
       39.00  0.264198E+05 0.760772E+03 0.105109E+06 0.645892E+06
       40.00  0.332759E+05 0.996615E+03 0.132902E+06 0.809485E+06
       42.00  0.518834E+05 0.167732E+04 0.208828E+06 0.124961E+07
       44.00  0.791984E+05 0.275608E+04 0.321214E+06 0.188838E+07
       46.00  0.118584E+06 0.443074E+04 0.484598E+06 0.279887E+07
       48.00  0.174456E+06 0.698185E+04 0.718254E+06 0.407552E+07
       50.00  0.252540E+06 0.108014E+05 0.104742E+07 0.583885E+07
       52.00  0.360185E+06 0.164297E+05 0.150479E+07 0.824097E+07
       54.00  0.506725E+06 0.246027E+05 0.213228E+07 0.114720E+08
       56.00  0.703918E+06 0.363109E+05 0.298317E+07 0.157675E+08
       58.00  0.966450E+06 0.528743E+05 0.412460E+07 0.214165E+08
       60.00  0.131253E+07 0.760348E+05 0.564054E+07 0.287716E+08
       62.00  0.176455E+07 0.108071E+06 0.763523E+07 0.382591E+08
       64.00  0.234994E+07 0.151937E+06 0.102372E+08 0.503916E+08
       66.00  0.310199E+07 0.211435E+06 0.136041E+08 0.657811E+08
       68.00  0.406099E+07 0.291426E+06 0.179280E+08 0.851546E+08
       70.00  0.527539E+07 0.398078E+06 0.234417E+08 0.109371E+09
       72.00  0.680324E+07 0.539174E+06 0.304264E+08 0.139442E+09
       74.00  0.871375E+07 0.724481E+06 0.392200E+08 0.176550E+09
       76.00  0.110892E+08 0.966192E+06 0.502271E+08 0.222077E+09
       78.00  0.140272E+08 0.127945E+07 0.639304E+08 0.277632E+09
       80.00  0.176426E+08 0.168298E+07 0.809039E+08 0.345076E+09
       82.00  0.220710E+08 0.219986E+07 0.101828E+09 0.426563E+09
       84.00  0.274714E+08 0.285836E+07 0.127506E+09 0.524573E+09
       86.00  0.340301E+08 0.369307E+07 0.158887E+09 0.641957E+09
       88.00  0.419647E+08 0.474609E+07 0.197085E+09 0.781988E+09
       90.00  0.515289E+08 0.606856E+07 0.243408E+09 0.948407E+09
       92.00  0.630184E+08 0.772241E+07 0.299389E+09 0.114549E+10
       94.00  0.767769E+08 0.978245E+07 0.366820E+09 0.137814E+10
       96.00  0.932036E+08 0.123388E+08 0.447795E+09 0.165190E+10
       98.00  0.112762E+09 0.155001E+08 0.544760E+09 0.197313E+10
      100.00  0.135989E+09 0.193963E+08 0.660562E+09 0.234905E+10
      102.00  0.163508E+09 0.241837E+08 0.798522E+09 0.278788E+10
      104.00  0.196039E+09 0.300492E+08 0.962501E+09 0.329897E+10
      106.00  0.234417E+09 0.372160E+08 0.115699E+10 0.389293E+10
      108.00  0.279608E+09 0.459508E+08 0.138723E+10 0.458185E+10
      110.00  0.332730E+09 0.565718E+08 0.165927E+10 0.537944E+10
      112.00  0.395077E+09 0.694581E+08 0.198020E+10 0.630131E+10
      114.00  0.468145E+09 0.850616E+08 0.235821E+10 0.736521E+10
      116.00  0.553671E+09 0.103920E+09 0.280287E+10 0.859133E+10
      118.00  0.653664E+09 0.126674E+09 0.332528E+10 0.100027E+11
      122.00  0.906753E+09 0.187066E+09 0.465726E+10 0.134897E+11
      126.00  0.125095E+10 0.274256E+09 0.648560E+10 0.180842E+11
      130.00  0.171811E+10 0.399630E+09 0.898935E+10 0.241233E+11
      134.00  0.235147E+10 0.579380E+09 0.124133E+11 0.320507E+11
      138.00  0.321004E+10 0.836588E+09 0.170936E+11 0.424515E+11
      142.00  0.437459E+10 0.120424E+10 0.234933E+11 0.561021E+11
      146.00  0.595617E+10 0.172960E+10 0.322527E+11 0.740343E+11
      150.00  0.810758E+10 0.248045E+10 0.442580E+11 0.976204E+11
      154.00  0.110386E+11 0.355383E+10 0.607332E+11 0.128677E+12
      158.00  0.150343E+11 0.508772E+10 0.833535E+11 0.169572E+12
      162.00  0.204740E+11 0.727501E+10 0.114363E+12 0.223305E+12
      166.00  0.278402E+11 0.103765E+11 0.156644E+12 0.293443E+12
      170.00  0.376936E+11 0.147220E+11 0.213592E+12 0.383706E+12
      174.00  0.505659E+11 0.206766E+11 0.288516E+12 0.496804E+12
      178.00  0.666998E+11 0.285285E+11 0.383135E+12 0.632054E+12
      182.00  0.855975E+11 0.382631E+11 0.494910E+12 0.781793E+12
      186.00  0.105541E+12 0.492667E+11 0.614113E+12 0.928411E+12
      190.00  0.123594E+12 0.602006E+11 0.723613E+12 0.104635E+13
      194.00  0.136592E+12 0.693716E+11 0.804538E+12 0.111208E+13
      198.00  0.142720E+12 0.755231E+11 0.845554E+12 0.111654E+13
      202.00  0.142280E+12 0.783934E+11 0.847741E+12 0.106870E+13
      206.00  0.137069E+12 0.785834E+11 0.821206E+12 0.987636E+12
      210.00  0.129202E+12 0.770266E+11 0.778222E+12 0.892244E+12
      214.00  0.120346E+12 0.745622E+11 0.728649E+12 0.795789E+12
      218.00  0.111541E+12 0.717768E+11 0.678744E+12 0.705557E+12
      222.00  0.103324E+12 0.690189E+11 0.631815E+12 0.624583E+12
      226.00  0.959107E+11 0.664682E+11 0.589256E+12 0.553459E+12
      230.00  0.893392E+11 0.642012E+11 0.551395E+12 0.491599E+12
      234.00  0.835628E+11 0.622370E+11 0.518026E+12 0.437955E+12
      238.00  0.784994E+11 0.605657E+11 0.488719E+12 0.391384E+12
      242.00  0.740586E+11 0.591637E+11 0.462976E+12 0.350816E+12
      246.00  0.701535E+11 0.580034E+11 0.440311E+12 0.315311E+12
      250.00  0.667063E+11 0.570566E+11 0.420283E+12 0.284074E+12
      254.00  0.636496E+11 0.562970E+11 0.402507E+12 0.256442E+12
      258.00  0.609257E+11 0.557012E+11 0.386653E+12 0.231868E+12
      262.00  0.584862E+11 0.552485E+11 0.372439E+12 0.209904E+12
      266.00  0.562901E+11 0.549209E+11 0.359630E+12 0.190180E+12
      270.00  0.543033E+11 0.547029E+11 0.348027E+12 0.172391E+12
      274.00  0.524969E+11 0.545809E+11 0.337461E+12 0.156284E+12
      282.00  0.493316E+11 0.545804E+11 0.318896E+12 0.128316E+12
      290.00  0.466411E+11 0.548434E+11 0.303038E+12 0.104977E+12
      298.00  0.443148E+11 0.553126E+11 0.289238E+12 0.853471E+11
      306.00  0.422720E+11 0.559441E+11 0.277022E+12 0.687600E+11
      314.00  0.404528E+11 0.567042E+11 0.266039E+12 0.547219E+11
      322.00  0.388122E+11 0.575661E+11 0.256025E+12 0.428580E+11
      330.00  0.373157E+11 0.585081E+11 0.246779E+12 0.328779E+11
      338.00  0.359369E+11 0.595124E+11 0.238146E+12 0.245512E+11
      346.00  0.346551E+11 0.605646E+11 0.230008E+12 0.176911E+11
      354.00  0.334544E+11 0.616528E+11 0.222276E+12 0.121430E+11
      362.00  0.323221E+11 0.627671E+11 0.214877E+12 0.777606E+10
      370.00  0.312481E+11 0.638987E+11 0.207756E+12 0.447731E+10
      378.00  0.302242E+11 0.650402E+11 0.200869E+12 0.214769E+10
      386.00  0.292438E+11 0.661850E+11 0.194182E+12 0.698938E+09
      394.00  0.283016E+11 0.673275E+11 0.187669E+12 0.513513E+08
      402.00  0.273934E+11 0.684632E+11 0.181310E+12 0.132148E+09
      410.00  0.265158E+11 0.695880E+11 0.175089E+12 0.874256E+09
      418.00  0.256660E+11 0.706983E+11 0.168996E+12 0.221543E+10
      426.00  0.248416E+11 0.717907E+11 0.163020E+12 0.409758E+10
      434.00  0.240406E+11 0.728625E+11 0.157156E+12 0.646625E+10
      442.00  0.232615E+11 0.739113E+11 0.151400E+12 0.927029E+10
      450.00  0.225031E+11 0.749352E+11 0.145748E+12 0.124616E+11
      458.00  0.217643E+11 0.759326E+11 0.140199E+12 0.159947E+11
      466.00  0.210442E+11 0.769020E+11 0.134754E+12 0.198270E+11
      474.00  0.203420E+11 0.778421E+11 0.129410E+12 0.239181E+11
      482.00  0.196571E+11 0.787516E+11 0.124170E+12 0.282301E+11
      490.00  0.189888E+11 0.796295E+11 0.119033E+12 0.327273E+11
      498.00  0.183368E+11 0.804751E+11 0.114000E+12 0.373760E+11
      506.00  0.177006E+11 0.812878E+11 0.109073E+12 0.421449E+11
      514.00  0.170798E+11 0.820671E+11 0.104252E+12 0.470043E+11
      522.00  0.164742E+11 0.828125E+11 0.995398E+11 0.519268E+11
      530.00  0.158833E+11 0.835233E+11 0.949366E+11 0.568864E+11
      538.00  0.153068E+11 0.841994E+11 0.904435E+11 0.618591E+11
      546.00  0.147446E+11 0.848401E+11 0.860616E+11 0.668223E+11
      554.00  0.141963E+11 0.854455E+11 0.817920E+11 0.717554E+11
      562.00  0.136617E+11 0.860153E+11 0.776355E+11 0.766392E+11
      570.00  0.131406E+11 0.865496E+11 0.735930E+11 0.814560E+11
      578.00  0.126329E+11 0.870484E+11 0.696653E+11 0.861896E+11
      586.00  0.121382E+11 0.875116E+11 0.658529E+11 0.908251E+11
      596.00  0.115380E+11 0.880407E+11 0.612499E+11 0.964610E+11
      606.00  0.109577E+11 0.885143E+11 0.568281E+11 0.101899E+12
      616.00  0.103968E+11 0.889331E+11 0.525879E+11 0.107118E+12
      626.00  0.985500E+10 0.892976E+11 0.485291E+11 0.112100E+12
      636.00  0.933207E+10 0.896086E+11 0.446515E+11 0.116830E+12
      646.00  0.882764E+10 0.898669E+11 0.409543E+11 0.121297E+12
      656.00  0.834136E+10 0.900730E+11 0.374364E+11 0.125488E+12
      666.00  0.787291E+10 0.902280E+11 0.340965E+11 0.129395E+12
      676.00  0.742197E+10 0.903325E+11 0.309329E+11 0.133013E+12
      686.00  0.698820E+10 0.903879E+11 0.279437E+11 0.136337E+12
      696.00  0.657129E+10 0.903950E+11 0.251267E+11 0.139364E+12
      706.00  0.617091E+10 0.903551E+11 0.224796E+11 0.142093E+12
      716.00  0.578670E+10 0.902690E+11 0.199997E+11 0.144524E+12
      726.00  0.541833E+10 0.901378E+11 0.176840E+11 0.146658E+12
      736.00  0.506546E+10 0.899624E+11 0.155295E+11 0.148498E+12
      746.00  0.472775E+10 0.897440E+11 0.135330E+11 0.150048E+12
      756.00  0.440488E+10 0.894837E+11 0.116912E+11 0.151311E+12
      766.00  0.409650E+10 0.891826E+11 0.100004E+11 0.152294E+12
      776.00  0.380228E+10 0.888419E+11 0.845720E+10 0.153003E+12
      786.00  0.352189E+10 0.884626E+11 0.705771E+10 0.153445E+12
      796.00  0.325498E+10 0.880458E+11 0.579812E+10 0.153627E+12
      806.00  0.300125E+10 0.875925E+11 0.467451E+10 0.153557E+12
      816.00  0.276035E+10 0.871040E+11 0.368290E+10 0.153244E+12
      826.00  0.253197E+10 0.865814E+11 0.281923E+10 0.152697E+12
      836.00  0.231580E+10 0.860261E+11 0.207940E+10 0.151926E+12
      846.00  0.211150E+10 0.854392E+11 0.145926E+10 0.150939E+12
      856.00  0.191877E+10 0.848218E+11 0.954632E+09 0.149748E+12
      866.00  0.173729E+10 0.841751E+11 0.561321E+09 0.148362E+12
      876.00  0.156675E+10 0.835003E+11 0.275115E+09 0.146791E+12
      886.00  0.140685E+10 0.827986E+11 0.918003E+08 0.145046E+12
      896.00  0.125728E+10 0.820712E+11 0.716663E+07 0.143136E+12
      906.00  0.111775E+10 0.813193E+11 0.170170E+08 0.141073E+12
      916.00  0.987948E+09 0.805442E+11 0.117175E+09 0.138867E+12
      926.00  0.867590E+09 0.797469E+11 0.303490E+09 0.136527E+12
      936.00  0.756382E+09 0.789285E+11 0.571846E+09 0.134065E+12
      946.00  0.654039E+09 0.780902E+11 0.918168E+09 0.131489E+12
      956.00  0.560276E+09 0.772330E+11 0.133842E+10 0.128810E+12
      966.00  0.474816E+09 0.763580E+11 0.182863E+10 0.126038E+12
      976.00  0.397385E+09 0.754663E+11 0.238486E+10 0.123181E+12
      986.00  0.327711E+09 0.745589E+11 0.300324E+10 0.120249E+12
      996.00  0.265529E+09 0.736370E+11 0.367998E+10 0.117251E+12
     1006.00  0.210576E+09 0.727015E+11 0.441133E+10 0.114196E+12
     1016.00  0.162594E+09 0.717532E+11 0.519363E+10 0.111093E+12
     1026.00  0.121331E+09 0.707933E+11 0.602326E+10 0.107948E+12
     1036.00  0.865358E+08 0.698226E+11 0.689671E+10 0.104771E+12
     1046.00  0.579656E+08 0.688420E+11 0.781053E+10 0.101569E+12
     1056.00  0.353796E+08 0.678526E+11 0.876136E+10 0.983499E+11
     1066.00  0.185422E+08 0.668552E+11 0.974592E+10 0.951201E+11
     1076.00  0.722212E+07 0.658508E+11 0.107610E+11 0.918869E+11
     1086.00  0.119240E+07 0.648401E+11 0.118035E+11 0.886567E+11
     1096.00  0.230707E+06 0.638241E+11 0.128704E+11 0.854357E+11
     1106.00  0.411915E+07 0.628035E+11 0.139587E+11 0.822300E+11
     1116.00  0.126443E+08 0.617791E+11 0.150656E+11 0.790451E+11
     1126.00  0.255972E+08 0.607517E+11 0.161884E+11 0.758864E+11
     1136.00  0.427733E+08 0.597221E+11 0.173243E+11 0.727592E+11
     1146.00  0.639728E+08 0.586911E+11 0.184708E+11 0.696681E+11
     1156.00  0.890000E+08 0.576595E+11 0.196253E+11 0.666176E+11
     1166.00  0.117664E+09 0.566279E+11 0.207856E+11 0.636120E+11
     1176.00  0.149778E+09 0.555969E+11 0.219492E+11 0.606553E+11
     1186.00  0.185160E+09 0.545673E+11 0.231140E+11 0.577509E+11
     1196.00  0.223632E+09 0.535396E+11 0.242778E+11 0.549023E+11
     1206.00  0.265021E+09 0.525145E+11 0.254386E+11 0.521127E+11
     1216.00  0.309157E+09 0.514925E+11 0.265943E+11 0.493850E+11
     1226.00  0.355876E+09 0.504743E+11 0.277432E+11 0.467216E+11
     1236.00  0.405017E+09 0.494605E+11 0.288834E+11 0.441251E+11
     1246.00  0.456423E+09 0.484514E+11 0.300133E+11 0.415976E+11
     1256.00  0.509943E+09 0.474477E+11 0.311311E+11 0.391410E+11
     1266.00  0.565428E+09 0.464498E+11 0.322354E+11 0.367569E+11
     1276.00  0.622735E+09 0.454582E+11 0.333247E+11 0.344469E+11
     1286.00  0.681721E+09 0.444733E+11 0.343975E+11 0.322122E+11
     1296.00  0.742253E+09 0.434956E+11 0.354526E+11 0.300538E+11
     1306.00  0.804196E+09 0.425254E+11 0.364887E+11 0.279727E+11
     1316.00  0.867424E+09 0.415632E+11 0.375047E+11 0.259696E+11
     1326.00  0.931812E+09 0.406094E+11 0.384995E+11 0.240450E+11
     1336.00  0.997240E+09 0.396643E+11 0.394721E+11 0.221992E+11
     1346.00  0.106359E+10 0.387282E+11 0.404215E+11 0.204325E+11
     1356.00  0.113075E+10 0.378015E+11 0.413469E+11 0.187448E+11
     1366.00  0.119861E+10 0.368845E+11 0.422474E+11 0.171361E+11
     1376.00  0.126706E+10 0.359775E+11 0.431223E+11 0.156062E+11
     1386.00  0.133600E+10 0.350807E+11 0.439708E+11 0.141545E+11
     1396.00  0.140534E+10 0.341945E+11 0.447925E+11 0.127807E+11
     1406.00  0.147497E+10 0.333190E+11 0.455868E+11 0.114840E+11
     1416.00  0.154480E+10 0.324546E+11 0.463531E+11 0.102638E+11
     1426.00  0.161476E+10 0.316013E+11 0.470910E+11 0.911923E+10
     1436.00  0.168474E+10 0.307595E+11 0.478002E+11 0.804929E+10
     1446.00  0.175468E+10 0.299294E+11 0.484802E+11 0.705295E+10
     1456.00  0.182448E+10 0.291110E+11 0.491309E+11 0.612909E+10
     1466.00  0.189408E+10 0.283045E+11 0.497520E+11 0.527650E+10
     1476.00  0.196340E+10 0.275101E+11 0.503433E+11 0.449388E+10
     1486.00  0.203237E+10 0.267280E+11 0.509046E+11 0.377989E+10
     1496.00  0.210093E+10 0.259581E+11 0.514359E+11 0.313311E+10
     1506.00  0.216901E+10 0.252007E+11 0.519371E+11 0.255207E+10
     1516.00  0.223655E+10 0.244558E+11 0.524083E+11 0.203523E+10
     1526.00  0.230348E+10 0.237235E+11 0.528494E+11 0.158102E+10
     1536.00  0.236977E+10 0.230039E+11 0.532605E+11 0.118782E+10
     1546.00  0.243534E+10 0.222970E+11 0.536418E+11 0.853971E+09
     1556.00  0.250016E+10 0.216029E+11 0.539932E+11 0.577793E+09
     1566.00  0.256416E+10 0.209216E+11 0.543151E+11 0.357564E+09
     1576.00  0.262731E+10 0.202530E+11 0.546075E+11 0.191542E+09
     1586.00  0.268957E+10 0.195974E+11 0.548708E+11 0.779648E+08
     1596.00  0.275088E+10 0.189545E+11 0.551051E+11 0.150540E+08
     1606.00  0.281122E+10 0.183245E+11 0.553109E+11 0.101765E+07
     1616.00  0.287054E+10 0.177073E+11 0.554883E+11 0.340550E+08
     1626.00  0.292882E+10 0.171029E+11 0.556377E+11 0.112359E+09
     1636.00  0.298601E+10 0.165113E+11 0.557595E+11 0.234122E+09
     1646.00  0.304209E+10 0.159325E+11 0.558541E+11 0.397534E+09
     1656.00  0.309704E+10 0.153663E+11 0.559218E+11 0.600790E+09
     1666.00  0.315081E+10 0.148127E+11 0.559631E+11 0.842092E+09
     1676.00  0.320340E+10 0.142717E+11 0.559783E+11 0.111965E+10
     1686.00  0.325477E+10 0.137432E+11 0.559680E+11 0.143168E+10
     1696.00  0.330491E+10 0.132272E+11 0.559327E+11 0.177643E+10
     1706.00  0.335379E+10 0.127235E+11 0.558727E+11 0.215215E+10
     1716.00  0.340141E+10 0.122320E+11 0.557887E+11 0.255710E+10
     1726.00  0.344774E+10 0.117528E+11 0.556811E+11 0.298957E+10
     1736.00  0.349277E+10 0.112856E+11 0.555505E+11 0.344789E+10
     1746.00  0.353650E+10 0.108304E+11 0.553973E+11 0.393038E+10
     1756.00  0.357890E+10 0.103871E+11 0.552221E+11 0.443541E+10
     1766.00  0.361997E+10 0.995555E+10 0.550256E+11 0.496137E+10
     1776.00  0.365970E+10 0.953562E+10 0.548081E+11 0.550667E+10
     1786.00  0.369808E+10 0.912721E+10 0.545702E+11 0.606976E+10
     1796.00  0.373511E+10 0.873020E+10 0.543126E+11 0.664912E+10
     1806.00  0.377079E+10 0.834445E+10 0.540359E+11 0.724326E+10
     1816.00  0.380511E+10 0.796984E+10 0.537404E+11 0.785072E+10
     1826.00  0.383808E+10 0.760623E+10 0.534270E+11 0.847007E+10
     1836.00  0.386968E+10 0.725347E+10 0.530961E+11 0.909993E+10
     1846.00  0.389993E+10 0.691143E+10 0.527483E+11 0.973895E+10
     1856.00  0.392882E+10 0.657997E+10 0.523842E+11 0.103858E+11
     1866.00  0.395635E+10 0.625892E+10 0.520043E+11 0.110392E+11
     1876.00  0.398253E+10 0.594815E+10 0.516093E+11 0.116979E+11
     1886.00  0.400737E+10 0.564750E+10 0.511996E+11 0.123606E+11
     1896.00  0.403087E+10 0.535682E+10 0.507759E+11 0.130263E+11
     1906.00  0.405303E+10 0.507595E+10 0.503388E+11 0.136938E+11
     1916.00  0.407386E+10 0.480473E+10 0.498888E+11 0.143619E+11
     1926.00  0.409337E+10 0.454302E+10 0.494264E+11 0.150296E+11
     1936.00  0.411158E+10 0.429064E+10 0.489523E+11 0.156960E+11
     1946.00  0.412849E+10 0.404745E+10 0.484670E+11 0.163599E+11
     1956.00  0.414410E+10 0.381326E+10 0.479710E+11 0.170205E+11
     1966.00  0.415844E+10 0.358794E+10 0.474650E+11 0.176768E+11
     1976.00  0.417151E+10 0.337130E+10 0.469493E+11 0.183280E+11
     1986.00  0.418332E+10 0.316319E+10 0.464246E+11 0.189732E+11
     1996.00  0.419390E+10 0.296344E+10 0.458914E+11 0.196117E+11
     2006.00  0.420324E+10 0.277190E+10 0.453501E+11 0.202425E+11
     2016.00  0.421137E+10 0.258839E+10 0.448014E+11 0.208651E+11
     2026.00  0.421830E+10 0.241274E+10 0.442457E+11 0.214788E+11
     2036.00  0.422404E+10 0.224481E+10 0.436836E+11 0.220828E+11
     2046.00  0.422862E+10 0.208442E+10 0.431154E+11 0.226766E+11
     2056.00  0.423204E+10 0.193142E+10 0.425418E+11 0.232595E+11
     2066.00  0.423433E+10 0.178562E+10 0.419632E+11 0.238310E+11
     2076.00  0.423549E+10 0.164689E+10 0.413800E+11 0.243906E+11
     2086.00  0.423556E+10 0.151504E+10 0.407927E+11 0.249378E+11
     2096.00  0.423453E+10 0.138993E+10 0.402018E+11 0.254721E+11
     2106.00  0.423244E+10 0.127139E+10 0.396076E+11 0.259932E+11
     2116.00  0.422930E+10 0.115926E+10 0.390107E+11 0.265005E+11
     2126.00  0.422512E+10 0.105338E+10 0.384114E+11 0.269937E+11
     2136.00  0.421994E+10 0.953601E+09 0.378101E+11 0.274726E+11
     2146.00  0.421375E+10 0.859760E+09 0.372073E+11 0.279367E+11
     2156.00  0.420659E+10 0.771704E+09 0.366033E+11 0.283858E+11
     2166.00  0.419848E+10 0.689279E+09 0.359986E+11 0.288197E+11
     2176.00  0.418942E+10 0.612333E+09 0.353935E+11 0.292381E+11
     2186.00  0.417945E+10 0.540716E+09 0.347884E+11 0.296409E+11
     2196.00  0.416857E+10 0.474277E+09 0.341835E+11 0.300278E+11
     2206.00  0.415682E+10 0.412869E+09 0.335793E+11 0.303986E+11
     2216.00  0.414420E+10 0.356345E+09 0.329761E+11 0.307534E+11
     2226.00  0.413073E+10 0.304562E+09 0.323742E+11 0.310918E+11
     2236.00  0.411645E+10 0.257376E+09 0.317740E+11 0.314140E+11
     2246.00  0.410136E+10 0.214646E+09 0.311756E+11 0.317197E+11
     2256.00  0.408548E+10 0.176232E+09 0.305795E+11 0.320090E+11
     2266.00  0.406884E+10 0.141998E+09 0.299859E+11 0.322818E+11
     2276.00  0.405145E+10 0.111807E+09 0.293951E+11 0.325382E+11
     2286.00  0.403334E+10 0.855257E+08 0.288073E+11 0.327782E+11
     2296.00  0.401452E+10 0.630218E+08 0.282229E+11 0.330017E+11
     2306.00  0.399502E+10 0.441653E+08 0.276419E+11 0.332089E+11
     2316.00  0.397485E+10 0.288282E+08 0.270648E+11 0.333998E+11
     2326.00  0.395402E+10 0.168845E+08 0.264917E+11 0.335746E+11
     2336.00  0.393257E+10 0.820990E+07 0.259229E+11 0.337332E+11
     2346.00  0.391050E+10 0.268242E+07 0.253585E+11 0.338758E+11
     2356.00  0.388785E+10 0.181968E+06 0.247987E+11 0.340026E+11
     2366.00  0.386462E+10 0.590520E+06 0.242438E+11 0.341136E+11
     2376.00  0.384083E+10 0.379211E+07 0.236939E+11 0.342092E+11
     2386.00  0.381651E+10 0.967282E+07 0.231493E+11 0.342893E+11
     2396.00  0.379168E+10 0.181208E+08 0.226100E+11 0.343542E+11
     2406.00  0.376634E+10 0.290264E+08 0.220763E+11 0.344042E+11
     2416.00  0.374053E+10 0.422819E+08 0.215482E+11 0.344393E+11
     2426.00  0.371425E+10 0.577818E+08 0.210260E+11 0.344598E+11
     2436.00  0.368753E+10 0.754225E+08 0.205097E+11 0.344660E+11
     2446.00  0.366039E+10 0.951026E+08 0.199996E+11 0.344581E+11
     2456.00  0.363283E+10 0.116723E+09 0.194957E+11 0.344362E+11
     2466.00  0.360488E+10 0.140186E+09 0.189980E+11 0.344006E+11
     2476.00  0.357656E+10 0.165398E+09 0.185069E+11 0.343517E+11
     2486.00  0.354788E+10 0.192264E+09 0.180222E+11 0.342896E+11
     2496.00  0.351885E+10 0.220694E+09 0.175442E+11 0.342146E+11
     2506.00  0.348951E+10 0.250599E+09 0.170729E+11 0.341271E+11
     2516.00  0.345985E+10 0.281892E+09 0.166083E+11 0.340271E+11
     2526.00  0.342991E+10 0.314488E+09 0.161507E+11 0.339152E+11
     2536.00  0.339968E+10 0.348305E+09 0.156999E+11 0.337914E+11
     2546.00  0.336920E+10 0.383262E+09 0.152561E+11 0.336562E+11
     2556.00  0.333847E+10 0.419280E+09 0.148193E+11 0.335098E+11
     2566.00  0.330752E+10 0.456282E+09 0.143896E+11 0.333525E+11
     2576.00  0.327634E+10 0.494194E+09 0.139671E+11 0.331846E+11
     2586.00  0.324497E+10 0.532943E+09 0.135516E+11 0.330064E+11
     2596.00  0.321341E+10 0.572457E+09 0.131433E+11 0.328182E+11
     2606.00  0.318168E+10 0.612668E+09 0.127422E+11 0.326202E+11
     2616.00  0.314979E+10 0.653509E+09 0.123484E+11 0.324129E+11
     2626.00  0.311775E+10 0.694914E+09 0.119617E+11 0.321965E+11
     2636.00  0.308558E+10 0.736820E+09 0.115823E+11 0.319712E+11
     2646.00  0.305330E+10 0.779167E+09 0.112101E+11 0.317375E+11
     2656.00  0.302091E+10 0.821894E+09 0.108451E+11 0.314956E+11
     2666.00  0.298844E+10 0.864943E+09 0.104874E+11 0.312458E+11
     2676.00  0.295588E+10 0.908258E+09 0.101368E+11 0.309884E+11
     2686.00  0.292325E+10 0.951785E+09 0.979346E+10 0.307237E+11
     2696.00  0.289057E+10 0.995472E+09 0.945728E+10 0.304521E+11
     2706.00  0.285785E+10 0.103927E+10 0.912826E+10 0.301737E+11
     2716.00  0.282509E+10 0.108312E+10 0.880635E+10 0.298889E+11
     2726.00  0.279232E+10 0.112699E+10 0.849153E+10 0.295981E+11
     2736.00  0.275953E+10 0.117082E+10 0.818377E+10 0.293014E+11
     2746.00  0.272675E+10 0.121457E+10 0.788302E+10 0.289992E+11
     2756.00  0.269398E+10 0.125820E+10 0.758926E+10 0.286918E+11
     2766.00  0.266123E+10 0.130167E+10 0.730242E+10 0.283794E+11
     2776.00  0.262851E+10 0.134494E+10 0.702247E+10 0.280623E+11
     2786.00  0.259583E+10 0.138797E+10 0.674935E+10 0.277408E+11
     2796.00  0.256321E+10 0.143073E+10 0.648301E+10 0.274152E+11
     2806.00  0.253065E+10 0.147317E+10 0.622339E+10 0.270858E+11
     2816.00  0.249816E+10 0.151526E+10 0.597044E+10 0.267528E+11
     2826.00  0.246575E+10 0.155698E+10 0.572409E+10 0.264164E+11
     2836.00  0.243343E+10 0.159830E+10 0.548428E+10 0.260770E+11
     2846.00  0.240120E+10 0.163917E+10 0.525094E+10 0.257347E+11
     2856.00  0.236908E+10 0.167958E+10 0.502401E+10 0.253899E+11
     2866.00  0.233707E+10 0.171950E+10 0.480342E+10 0.250428E+11
     2876.00  0.230518E+10 0.175889E+10 0.458909E+10 0.246936E+11
     2886.00  0.227342E+10 0.179775E+10 0.438095E+10 0.243425E+11
     2896.00  0.224179E+10 0.183604E+10 0.417893E+10 0.239899E+11
     2906.00  0.221031E+10 0.187374E+10 0.398295E+10 0.236358E+11
     2916.00  0.217897E+10 0.191084E+10 0.379294E+10 0.232806E+11
     2926.00  0.214779E+10 0.194731E+10 0.360880E+10 0.229244E+11
     2936.00  0.211678E+10 0.198313E+10 0.343047E+10 0.225676E+11
     2946.00  0.208593E+10 0.201829E+10 0.325786E+10 0.222102E+11
     2956.00  0.205525E+10 0.205277E+10 0.309088E+10 0.218525E+11
     2966.00  0.202476E+10 0.208655E+10 0.292946E+10 0.214946E+11
     2976.00  0.199445E+10 0.211963E+10 0.277351E+10 0.211369E+11
     2986.00  0.196433E+10 0.215198E+10 0.262294E+10 0.207794E+11
     2996.00  0.193441E+10 0.218360E+10 0.247767E+10 0.204223E+11
     3006.00  0.190469E+10 0.221447E+10 0.233760E+10 0.200659E+11
     3016.00  0.187517E+10 0.224459E+10 0.220266E+10 0.197102E+11
     3026.00  0.184586E+10 0.227394E+10 0.207276E+10 0.193556E+11
     3036.00  0.181677E+10 0.230251E+10 0.194780E+10 0.190021E+11
     3046.00  0.178790E+10 0.233031E+10 0.182770E+10 0.186498E+11
     3056.00  0.175925E+10 0.235731E+10 0.171237E+10 0.182990E+11
     3066.00  0.173083E+10 0.238352E+10 0.160171E+10 0.179499E+11
     3076.00  0.170263E+10 0.240893E+10 0.149565E+10 0.176024E+11
     3086.00  0.167467E+10 0.243353E+10 0.139409E+10 0.172569E+11
     3096.00  0.164695E+10 0.245733E+10 0.129694E+10 0.169133E+11
     3106.00  0.161947E+10 0.248031E+10 0.120411E+10 0.165719E+11
     3116.00  0.159223E+10 0.250248E+10 0.111551E+10 0.162328E+11
     3126.00  0.156524E+10 0.252383E+10 0.103106E+10 0.158961E+11
     3136.00  0.153850E+10 0.254437E+10 0.950659E+09 0.155618E+11
     3146.00  0.151200E+10 0.256409E+10 0.874227E+09 0.152303E+11
     3156.00  0.148576E+10 0.258299E+10 0.801672E+09 0.149014E+11
     3166.00  0.145978E+10 0.260107E+10 0.732906E+09 0.145754E+11
     3176.00  0.143406E+10 0.261834E+10 0.667843E+09 0.142523E+11
     3186.00  0.140859E+10 0.263479E+10 0.606395E+09 0.139322E+11
     3196.00  0.138339E+10 0.265044E+10 0.548475E+09 0.136152E+11
     3206.00  0.135845E+10 0.266527E+10 0.493997E+09 0.133015E+11
     3216.00  0.133377E+10 0.267930E+10 0.442875E+09 0.129910E+11
     3226.00  0.130936E+10 0.269253E+10 0.395026E+09 0.126839E+11
     3236.00  0.128522E+10 0.270497E+10 0.350363E+09 0.123802E+11
     3246.00  0.126135E+10 0.271661E+10 0.308805E+09 0.120800E+11
     3256.00  0.123774E+10 0.272746E+10 0.270267E+09 0.117834E+11
     3266.00  0.121441E+10 0.273754E+10 0.234667E+09 0.114904E+11
     3276.00  0.119135E+10 0.274684E+10 0.201925E+09 0.112011E+11
     3286.00  0.116855E+10 0.275537E+10 0.171959E+09 0.109155E+11
     3296.00  0.114604E+10 0.276314E+10 0.144690E+09 0.106337E+11
     3306.00  0.112379E+10 0.277015E+10 0.120039E+09 0.103558E+11
     3316.00  0.110182E+10 0.277642E+10 0.979283E+08 0.100817E+11
     3326.00  0.108011E+10 0.278195E+10 0.782798E+08 0.981153E+10
     3336.00  0.105869E+10 0.278675E+10 0.610177E+08 0.954532E+10
     3346.00  0.103753E+10 0.279082E+10 0.460668E+08 0.928309E+10
     3356.00  0.101665E+10 0.279418E+10 0.333526E+08 0.902486E+10
     3366.00  0.996043E+09 0.279683E+10 0.228018E+08 0.877068E+10
     3376.00  0.975707E+09 0.279879E+10 0.143421E+08 0.852055E+10
     3386.00  0.955642E+09 0.280006E+10 0.790215E+07 0.827450E+10
     3396.00  0.935849E+09 0.280064E+10 0.341150E+07 0.803254E+10
     3406.00  0.916327E+09 0.280056E+10 0.800889E+06 0.779469E+10
     3416.00  0.897074E+09 0.279983E+10 0.204771E+04 0.756095E+10
     3426.00  0.878092E+09 0.279844E+10 0.947761E+06 0.733135E+10
     3436.00  0.859377E+09 0.279641E+10 0.357188E+07 0.710587E+10
     3446.00  0.840931E+09 0.279375E+10 0.780932E+07 0.688453E+10
     3456.00  0.822751E+09 0.279048E+10 0.135961E+08 0.666732E+10
     3466.00  0.804836E+09 0.278660E+10 0.208692E+08 0.645425E+10
     3476.00  0.787186E+09 0.278212E+10 0.295670E+08 0.624530E+10
     3486.00  0.769800E+09 0.277705E+10 0.396286E+08 0.604047E+10
     3496.00  0.752676E+09 0.277141E+10 0.509944E+08 0.583976E+10
     3506.00  0.735812E+09 0.276521E+10 0.636058E+08 0.564314E+10
     3516.00  0.719208E+09 0.275845E+10 0.774056E+08 0.545062E+10
     3526.00  0.702861E+09 0.275114E+10 0.923372E+08 0.526216E+10
     3536.00  0.686772E+09 0.274331E+10 0.108346E+09 0.507776E+10
     3546.00  0.670936E+09 0.273496E+10 0.125377E+09 0.489739E+10
     3556.00  0.655355E+09 0.272610E+10 0.143377E+09 0.472103E+10
     3566.00  0.640025E+09 0.271673E+10 0.162295E+09 0.454867E+10
     3576.00  0.624945E+09 0.270689E+10 0.182080E+09 0.438027E+10
     3586.00  0.610113E+09 0.269657E+10 0.202682E+09 0.421581E+10
     3596.00  0.595527E+09 0.268578E+10 0.224053E+09 0.405526E+10
     3606.00  0.581187E+09 0.267454E+10 0.246145E+09 0.389860E+10
     3616.00  0.567089E+09 0.266286E+10 0.268911E+09 0.374579E+10
     3626.00  0.553232E+09 0.265075E+10 0.292307E+09 0.359679E+10
     3636.00  0.539614E+09 0.263822E+10 0.316287E+09 0.345159E+10
     3646.00  0.526234E+09 0.262529E+10 0.340809E+09 0.331014E+10
     3656.00  0.513088E+09 0.261195E+10 0.365831E+09 0.317240E+10
     3666.00  0.500175E+09 0.259824E+10 0.391311E+09 0.303834E+10
     3676.00  0.487493E+09 0.258415E+10 0.417209E+09 0.290792E+10
     3686.00  0.475040E+09 0.256969E+10 0.443487E+09 0.278110E+10
     3696.00  0.462814E+09 0.255489E+10 0.470106E+09 0.265785E+10
     3706.00  0.450812E+09 0.253974E+10 0.497029E+09 0.253811E+10
     3716.00  0.439033E+09 0.252426E+10 0.524221E+09 0.242186E+10
     3726.00  0.427474E+09 0.250846E+10 0.551646E+09 0.230904E+10
     3736.00  0.416132E+09 0.249236E+10 0.579270E+09 0.219961E+10
     3746.00  0.405007E+09 0.247596E+10 0.607061E+09 0.209353E+10
     3756.00  0.394095E+09 0.245926E+10 0.634986E+09 0.199075E+10
     3766.00  0.383394E+09 0.244230E+10 0.663015E+09 0.189123E+10
     3776.00  0.372902E+09 0.242506E+10 0.691117E+09 0.179493E+10
     3786.00  0.362617E+09 0.240757E+10 0.719263E+09 0.170179E+10
     3796.00  0.352537E+09 0.238984E+10 0.747424E+09 0.161176E+10
     3806.00  0.342658E+09 0.237187E+10 0.775575E+09 0.152481E+10
     3816.00  0.332979E+09 0.235367E+10 0.803687E+09 0.144088E+10
     3826.00  0.323497E+09 0.233526E+10 0.831735E+09 0.135992E+10
     3836.00  0.314210E+09 0.231664E+10 0.859695E+09 0.128190E+10
     3846.00  0.305116E+09 0.229782E+10 0.887543E+09 0.120674E+10
     3856.00  0.296213E+09 0.227882E+10 0.915256E+09 0.113442E+10
     3866.00  0.287497E+09 0.225963E+10 0.942812E+09 0.106487E+10
     3876.00  0.278966E+09 0.224028E+10 0.970189E+09 0.998057E+09
     3886.00  0.270619E+09 0.222077E+10 0.997367E+09 0.933921E+09
     3896.00  0.262452E+09 0.220111E+10 0.102433E+10 0.872415E+09
     3906.00  0.254464E+09 0.218131E+10 0.105105E+10 0.813490E+09
     3916.00  0.246652E+09 0.216138E+10 0.107751E+10 0.757096E+09
     3926.00  0.239014E+09 0.214132E+10 0.110371E+10 0.703183E+09
     3936.00  0.231547E+09 0.212115E+10 0.112961E+10 0.651702E+09
     3946.00  0.224249E+09 0.210087E+10 0.115520E+10 0.602602E+09
     3956.00  0.217117E+09 0.208049E+10 0.118048E+10 0.555835E+09
     3966.00  0.210150E+09 0.206002E+10 0.120542E+10 0.511351E+09
     3976.00  0.203345E+09 0.203947E+10 0.123001E+10 0.469101E+09
     3986.00  0.196699E+09 0.201884E+10 0.125424E+10 0.429035E+09
     3996.00  0.190210E+09 0.199815E+10 0.127810E+10 0.391105E+09
     4006.00  0.183876E+09 0.197740E+10 0.130156E+10 0.355263E+09
     4016.00  0.177694E+09 0.195659E+10 0.132463E+10 0.321459E+09
     4026.00  0.171663E+09 0.193575E+10 0.134729E+10 0.289646E+09
     4036.00  0.165780E+09 0.191486E+10 0.136954E+10 0.259776E+09
     4046.00  0.160042E+09 0.189394E+10 0.139135E+10 0.231801E+09
     4056.00  0.154448E+09 0.187300E+10 0.141273E+10 0.205675E+09
     4066.00  0.148994E+09 0.185205E+10 0.143367E+10 0.181349E+09
     4076.00  0.143680E+09 0.183108E+10 0.145415E+10 0.158779E+09
     4086.00  0.138501E+09 0.181011E+10 0.147417E+10 0.137917E+09
     4096.00  0.133458E+09 0.178915E+10 0.149373E+10 0.118718E+09
     4106.00  0.128546E+09 0.176819E+10 0.151282E+10 0.101136E+09
     4116.00  0.123764E+09 0.174725E+10 0.153143E+10 0.851274E+08
     4126.00  0.119110E+09 0.172633E+10 0.154956E+10 0.706469E+08
     4136.00  0.114582E+09 0.170544E+10 0.156720E+10 0.576508E+08
     4146.00  0.110177E+09 0.168458E+10 0.158435E+10 0.460955E+08
     4156.00  0.105893E+09 0.166375E+10 0.160100E+10 0.359380E+08
     4166.00  0.101728E+09 0.164298E+10 0.161716E+10 0.271357E+08
     4176.00  0.976800E+08 0.162225E+10 0.163282E+10 0.196466E+08
     4186.00  0.937469E+08 0.160157E+10 0.164798E+10 0.134293E+08
     4196.00  0.899267E+08 0.158096E+10 0.166263E+10 0.844260E+07
     4206.00  0.862171E+08 0.156041E+10 0.167678E+10 0.464617E+07
     4216.00  0.826163E+08 0.153992E+10 0.169042E+10 0.200004E+07
     4226.00  0.791221E+08 0.151952E+10 0.170355E+10 0.464845E+06
     4236.00  0.757326E+08 0.149919E+10 0.171618E+10 0.174881E+04
     4246.00  0.724458E+08 0.147894E+10 0.172829E+10 0.572490E+06
     4256.00  0.692597E+08 0.145878E+10 0.173990E+10 0.213937E+07
     4266.00  0.661723E+08 0.143871E+10 0.175101E+10 0.466527E+07
     4276.00  0.631817E+08 0.141873E+10 0.176161E+10 0.811363E+07
     4286.00  0.602861E+08 0.139885E+10 0.177170E+10 0.124485E+08
     4296.00  0.574834E+08 0.137908E+10 0.178129E+10 0.176344E+08
     4306.00  0.547719E+08 0.135941E+10 0.179038E+10 0.236367E+08
     4316.00  0.521497E+08 0.133985E+10 0.179897E+10 0.304211E+08
     4326.00  0.496150E+08 0.132041E+10 0.180706E+10 0.379540E+08
     4336.00  0.471659E+08 0.130108E+10 0.181466E+10 0.462024E+08
     4346.00  0.448006E+08 0.128187E+10 0.182177E+10 0.551338E+08
     4356.00  0.425175E+08 0.126278E+10 0.182840E+10 0.647165E+08
     4366.00  0.403147E+08 0.124382E+10 0.183453E+10 0.749192E+08
     4376.00  0.381905E+08 0.122498E+10 0.184019E+10 0.857112E+08
     4386.00  0.361432E+08 0.120628E+10 0.184537E+10 0.970626E+08
     4396.00  0.341711E+08 0.118771E+10 0.185008E+10 0.108944E+09
     4406.00  0.322726E+08 0.116928E+10 0.185432E+10 0.121326E+09
     4416.00  0.304460E+08 0.115098E+10 0.185809E+10 0.134182E+09
     4426.00  0.286897E+08 0.113283E+10 0.186141E+10 0.147482E+09
     4436.00  0.270021E+08 0.111482E+10 0.186427E+10 0.161201E+09
     4446.00  0.253816E+08 0.109695E+10 0.186669E+10 0.175312E+09
     4456.00  0.238266E+08 0.107923E+10 0.186865E+10 0.189788E+09
     4466.00  0.223357E+08 0.106166E+10 0.187018E+10 0.204605E+09
     4476.00  0.209072E+08 0.104424E+10 0.187128E+10 0.219738E+09
     4486.00  0.195397E+08 0.102697E+10 0.187194E+10 0.235162E+09
     4511.00  0.163783E+08 0.984485E+09 0.187177E+10 0.274847E+09
     4536.00  0.135664E+08 0.942982E+09 0.186905E+10 0.315858E+09
     4561.00  0.110825E+08 0.902484E+09 0.186387E+10 0.357865E+09
     4586.00  0.890567E+07 0.863008E+09 0.185634E+10 0.400558E+09
     4611.00  0.701586E+07 0.824567E+09 0.184654E+10 0.443651E+09
     4636.00  0.539385E+07 0.787172E+09 0.183460E+10 0.486876E+09
     4661.00  0.402115E+07 0.750830E+09 0.182060E+10 0.529987E+09
     4686.00  0.288009E+07 0.715545E+09 0.180466E+10 0.572754E+09
     4711.00  0.195371E+07 0.681320E+09 0.178689E+10 0.614970E+09
     4736.00  0.122585E+07 0.648155E+09 0.176738E+10 0.656444E+09
     4761.00  0.681024E+06 0.616048E+09 0.174625E+10 0.697001E+09
     4786.00  0.304507E+06 0.584995E+09 0.172360E+10 0.736484E+09
     4811.00  0.822531E+05 0.554988E+09 0.169953E+10 0.774754E+09
     4836.00  0.902895E+03 0.526021E+09 0.167415E+10 0.811684E+09
     4861.00  0.477646E+05 0.498083E+09 0.164756E+10 0.847163E+09
     4886.00  0.210795E+06 0.471162E+09 0.161987E+10 0.881095E+09
     4911.00  0.478581E+06 0.445248E+09 0.159116E+10 0.913395E+09
     4936.00  0.840324E+06 0.420324E+09 0.156153E+10 0.943994E+09
     4961.00  0.128582E+07 0.396377E+09 0.153109E+10 0.972832E+09
     4986.00  0.180544E+07 0.373389E+09 0.149991E+10 0.999860E+09
     5011.00  0.239011E+07 0.351344E+09 0.146810E+10 0.102504E+10
     5036.00  0.303130E+07 0.330223E+09 0.143572E+10 0.104835E+10
     5061.00  0.372100E+07 0.310008E+09 0.140288E+10 0.106977E+10
     5086.00  0.445170E+07 0.290678E+09 0.136964E+10 0.108928E+10
     5111.00  0.521638E+07 0.272214E+09 0.133608E+10 0.110690E+10
     5136.00  0.600847E+07 0.254595E+09 0.130229E+10 0.112261E+10
     5161.00  0.682187E+07 0.237799E+09 0.126832E+10 0.113645E+10
     5186.00  0.765089E+07 0.221805E+09 0.123425E+10 0.114842E+10
     5211.00  0.849026E+07 0.206591E+09 0.120015E+10 0.115856E+10
     5236.00  0.933511E+07 0.192135E+09 0.116606E+10 0.116688E+10
     5261.00  0.101809E+08 0.178414E+09 0.113206E+10 0.117344E+10
     5286.00  0.110236E+08 0.165407E+09 0.109819E+10 0.117826E+10
     5311.00  0.118593E+08 0.153090E+09 0.106451E+10 0.118139E+10
     5336.00  0.126846E+08 0.141441E+09 0.103107E+10 0.118289E+10
     5361.00  0.134963E+08 0.130438E+09 0.997911E+09 0.118279E+10
     5386.00  0.142916E+08 0.120059E+09 0.965078E+09 0.118115E+10
     5411.00  0.150679E+08 0.110281E+09 0.932611E+09 0.117804E+10
     5436.00  0.158228E+08 0.101083E+09 0.900547E+09 0.117349E+10
     5461.00  0.165544E+08 0.924418E+08 0.868920E+09 0.116758E+10
     5511.00  0.179405E+08 0.767474E+08 0.807104E+09 0.115189E+10
     5561.00  0.192142E+08 0.630297E+08 0.747384E+09 0.113147E+10
     5611.00  0.203669E+08 0.511259E+08 0.689943E+09 0.110681E+10
     5661.00  0.213927E+08 0.408794E+08 0.634927E+09 0.107840E+10
     5711.00  0.222883E+08 0.321403E+08 0.582447E+09 0.104674E+10
     5761.00  0.230524E+08 0.247656E+08 0.532581E+09 0.101231E+10
     5811.00  0.236859E+08 0.186200E+08 0.485381E+09 0.975562E+09
     5861.00  0.241908E+08 0.135759E+08 0.440872E+09 0.936946E+09
     5911.00  0.245707E+08 0.951335E+07 0.399053E+09 0.896878E+09
     5961.00  0.248303E+08 0.632023E+07 0.359905E+09 0.855750E+09
     6011.00  0.249750E+08 0.389220E+07 0.323390E+09 0.813927E+09
     6061.00  0.250111E+08 0.213255E+07 0.289454E+09 0.771747E+09
     6111.00  0.249453E+08 0.952057E+06 0.258031E+09 0.729518E+09
     6161.00  0.247846E+08 0.268750E+06 0.229040E+09 0.687521E+09
     6211.00  0.245365E+08 0.768349E+04 0.202395E+09 0.646005E+09
     6261.00  0.242085E+08 0.100650E+06 0.177999E+09 0.605195E+09
     6311.00  0.238081E+08 0.485881E+06 0.155750E+09 0.565285E+09
     6361.00  0.233427E+08 0.110773E+07 0.135541E+09 0.526445E+09
     6411.00  0.228197E+08 0.191634E+07 0.117265E+09 0.488818E+09
     6461.00  0.222463E+08 0.286729E+07 0.100809E+09 0.452525E+09
     6511.00  0.216293E+08 0.392128E+07 0.860617E+08 0.417663E+09
     6561.00  0.209754E+08 0.504376E+07 0.729122E+08 0.384309E+09
     6611.00  0.202909E+08 0.620462E+07 0.612504E+08 0.352521E+09
     6661.00  0.195818E+08 0.737781E+07 0.509683E+08 0.322339E+09
     6711.00  0.188537E+08 0.854108E+07 0.419604E+08 0.293786E+09
     6761.00  0.181118E+08 0.967558E+07 0.341246E+08 0.266871E+09
     6811.00  0.173611E+08 0.107657E+08 0.273623E+08 0.241592E+09
     6861.00  0.166060E+08 0.117985E+08 0.215790E+08 0.217931E+09
     6911.00  0.158507E+08 0.127638E+08 0.166844E+08 0.195864E+09
     6961.00  0.150989E+08 0.136536E+08 0.125926E+08 0.175355E+09
     7011.00  0.143540E+08 0.144621E+08 0.922245E+07 0.156362E+09
     7061.00  0.136189E+08 0.151852E+08 0.649751E+07 0.138837E+09
     7111.00  0.128965E+08 0.158204E+08 0.434605E+07 0.122725E+09
     7161.00  0.121890E+08 0.163668E+08 0.270112E+07 0.107969E+09
     7211.00  0.114985E+08 0.168244E+08 0.150046E+07 0.945060E+08
     7261.00  0.108268E+08 0.171946E+08 0.686422E+06 0.822728E+08
     7311.00  0.101754E+08 0.174794E+08 0.205865E+06 0.712037E+08
     7361.00  0.954542E+07 0.176817E+08 0.100119E+05 0.612321E+08
     7411.00  0.893793E+07 0.178049E+08 0.543009E+05 0.522912E+08
     7511.00  0.779322E+07 0.178303E+08 0.705073E+06 0.372357E+08
     7611.00  0.674494E+07 0.175911E+08 0.187912E+07 0.255163E+08
     7711.00  0.579409E+07 0.171259E+08 0.335274E+07 0.166369E+08
     7811.00  0.493941E+07 0.164745E+08 0.495111E+07 0.101351E+08
     7911.00  0.417786E+07 0.156755E+08 0.654175E+07 0.558858E+07
     8011.00  0.350508E+07 0.147657E+08 0.802830E+07 0.261835E+07
     8111.00  0.291572E+07 0.137787E+08 0.934458E+07 0.890049E+06
     8211.00  0.240377E+07 0.127447E+08 0.104492E+08 0.113623E+06
     8311.00  0.196282E+07 0.116901E+08 0.113206E+08 0.416103E+05
     8411.00  0.158633E+07 0.106373E+08 0.119529E+08 0.466566E+06
     8511.00  0.126775E+07 0.960489E+07 0.123518E+08 0.121783E+07
     8611.00  0.100070E+07 0.860791E+07 0.125318E+08 0.215791E+07
     8711.00  0.779082E+06 0.765798E+07 0.125130E+08 0.317873E+07
     8811.00  0.597141E+06 0.676373E+07 0.123196E+08 0.419782E+07
     8911.00  0.449530E+06 0.593103E+07 0.119771E+08 0.515465E+07
     9011.00  0.331344E+06 0.516347E+07 0.115119E+08 0.600714E+07
     9111.00  0.238130E+06 0.446262E+07 0.109496E+08 0.672843E+07
     9211.00  0.165895E+06 0.382843E+07 0.103143E+08 0.730401E+07
     9311.00  0.111088E+06 0.325951E+07 0.962830E+07 0.772907E+07
     9411.00  0.705919E+05 0.275342E+07 0.891152E+07 0.800627E+07
     9511.00  0.416888E+05 0.230695E+07 0.818145E+07 0.814376E+07
     9611.00  0.220385E+05 0.191630E+07 0.745299E+07 0.815350E+07
     9711.00  0.964443E+04 0.157731E+07 0.673857E+07 0.804994E+07
     9811.00  0.282212E+04 0.128562E+07 0.604823E+07 0.784888E+07
     9911.00  0.166287E+03 0.103681E+07 0.538983E+07 0.756656E+07
    10011.00  0.519224E+03 0.826485E+06 0.476921E+07 0.721902E+07
    10111.00  0.294021E+04 0.650382E+06 0.419041E+07 0.682154E+07
    10211.00  0.667679E+04 0.504436E+06 0.365594E+07 0.638830E+07
    10311.00  0.111381E+05 0.384821E+06 0.316697E+07 0.593213E+07
    10411.00  0.158704E+05 0.287983E+06 0.272355E+07 0.546437E+07
    10511.00  0.205350E+05 0.210666E+06 0.232485E+07 0.499481E+07
    10611.00  0.248886E+05 0.149914E+06 0.196930E+07 0.453174E+07
    10711.00  0.287660E+05 0.103073E+06 0.165481E+07 0.408192E+07
    10811.00  0.320644E+05 0.677841E+05 0.137888E+07 0.365075E+07
    10911.00  0.347309E+05 0.419719E+05 0.113873E+07 0.324234E+07
    11011.00  0.367506E+05 0.238274E+05 0.931456E+06 0.285964E+07
    11111.00  0.381375E+05 0.117901E+05 0.754059E+06 0.250460E+07
    11211.00  0.389266E+05 0.452728E+04 0.603574E+06 0.217828E+07
    11311.00  0.391672E+05 0.913284E+03 0.477103E+06 0.188101E+07
    11411.00  0.389175E+05 0.817866E+01 0.371867E+06 0.161249E+07
    11511.00  0.382407E+05 0.103700E+04 0.285242E+06 0.137195E+07
    11611.00  0.372016E+05 0.336981E+04 0.214780E+06 0.115820E+07
    11711.00  0.358639E+05 0.650278E+04 0.158229E+06 0.969774E+06
    11811.00  0.342885E+05 0.100407E+05 0.113534E+06 0.805007E+06
    11911.00  0.325321E+05 0.136806E+05 0.788425E+05 0.662095E+06
    12011.00  0.306467E+05 0.171977E+05 0.525026E+05 0.539169E+06
    12111.00  0.286785E+05 0.204313E+05 0.330519E+05 0.434343E+06
    12211.00  0.266684E+05 0.232740E+05 0.192105E+05 0.345758E+06
    12311.00  0.246514E+05 0.256611E+05 0.986848E+04 0.271613E+06
    12411.00  0.226572E+05 0.275616E+05 0.407271E+04 0.210194E+06
    12511.00  0.207102E+05 0.289708E+05 0.101344E+04 0.159889E+06
    12611.00  0.188300E+05 0.299035E+05 0.101783E+02 0.119202E+06
    12711.00  0.170320E+05 0.303890E+05 0.497900E+03 0.867623E+05
    12811.00  0.153277E+05 0.304661E+05 0.201366E+04 0.613247E+05
    12911.00  0.137250E+05 0.301800E+05 0.418385E+04 0.417709E+05
    13011.00  0.122290E+05 0.295786E+05 0.671228E+04 0.271058E+05
    13111.00  0.108422E+05 0.287110E+05 0.936909E+04 0.164530E+05
    13211.00  0.956488E+04 0.276251E+05 0.119807E+05 0.904773E+04
    13311.00  0.839567E+04 0.263667E+05 0.144207E+05 0.422930E+04
    13411.00  0.733176E+04 0.249784E+05 0.166017E+05 0.143274E+04
    13511.00  0.636920E+04 0.234990E+05 0.184680E+05 0.179985E+03
    13611.00  0.550321E+04 0.219631E+05 0.199895E+05 0.711148E+02
    13711.00  0.472843E+04 0.204012E+05 0.211562E+05 0.775739E+03
    13811.00  0.403904E+04 0.188393E+05 0.219735E+05 0.202467E+04
    13911.00  0.342903E+04 0.172995E+05 0.224580E+05 0.360207E+04
    14011.00  0.289228E+04 0.157999E+05 0.226347E+05 0.533811E+04
    14111.00  0.242269E+04 0.143551E+05 0.225337E+05 0.710221E+04
    14211.00  0.201427E+04 0.129761E+05 0.221883E+05 0.879695E+04
    14311.00  0.166124E+04 0.116713E+05 0.216333E+05 0.103525E+05
    14411.00  0.135805E+04 0.104464E+05 0.209034E+05 0.117218E+05
    14511.00  0.109946E+04 0.930487E+04 0.200320E+05 0.128761E+05
    14611.00  0.880529E+03 0.824819E+04 0.190510E+05 0.138015E+05
    14711.00  0.696654E+03 0.727629E+04 0.179895E+05 0.144954E+05
    14811.00  0.543581E+03 0.638780E+04 0.168742E+05 0.149640E+05
    14911.00  0.417397E+03 0.558027E+04 0.157286E+05 0.152198E+05
    15011.00  0.314531E+03 0.485044E+04 0.145731E+05 0.152799E+05
    15111.00  0.231743E+03 0.419444E+04 0.134256E+05 0.151643E+05
    15211.00  0.166112E+03 0.360796E+04 0.123005E+05 0.148945E+05
    15311.00  0.115020E+03 0.308642E+04 0.112101E+05 0.144926E+05
    15411.00  0.761356E+02 0.262509E+04 0.101637E+05 0.139808E+05
    15511.00  0.473961E+02 0.221919E+04 0.916880E+04 0.133803E+05
    15611.00  0.269873E+02 0.186399E+04 0.823050E+04 0.127110E+05
    15711.00  0.133251E+02 0.155488E+04 0.735232E+04 0.119914E+05
    15811.00  0.503655E+01 0.128742E+04 0.653620E+04 0.112385E+05
    15911.00  0.940971E+00 0.105738E+04 0.578275E+04 0.104672E+05
    16011.00  0.319199E-01 0.860770E+03 0.509154E+04 0.969055E+04
    16111.00  0.145986E+01 0.693864E+03 0.446120E+04 0.891997E+04
    16211.00  0.451569E+01 0.553195E+03 0.388967E+04 0.816494E+04
    16311.00  0.861519E+01 0.435578E+03 0.337435E+04 0.743334E+04
    16411.00  0.132845E+02 0.338093E+03 0.291224E+04 0.673144E+04
    16511.00  0.181463E+02 0.258086E+03 0.250004E+04 0.606408E+04
    16611.00  0.229078E+02 0.193158E+03 0.213433E+04 0.543482E+04
    16711.00  0.273486E+02 0.141153E+03 0.181156E+04 0.484607E+04
    16811.00  0.313104E+02 0.100143E+03 0.152820E+04 0.429920E+04
    16911.00  0.346873E+02 0.684161E+02 0.128079E+04 0.379473E+04
    17011.00  0.374173E+02 0.444575E+02 0.106596E+04 0.333242E+04
    17111.00  0.394738E+02 0.269367E+02 0.880483E+03 0.291143E+04
    17211.00  0.408596E+02 0.146909E+02 0.721307E+03 0.253043E+04
    17311.00  0.415999E+02 0.671015E+01 0.585563E+03 0.218766E+04
    17411.00  0.417370E+02 0.212303E+01 0.470581E+03 0.188110E+04
    17511.00  0.413260E+02 0.182668E+00 0.373895E+03 0.160852E+04
    17611.00  0.404300E+02 0.253950E+00 0.293243E+03 0.136753E+04
    17711.00  0.391172E+02 0.180133E+01 0.226564E+03 0.115570E+04
    17811.00  0.374576E+02 0.437759E+01 0.171990E+03 0.970564E+03
    17911.00  0.355209E+02 0.761348E+01 0.127842E+03 0.809701E+03
    18011.00  0.333743E+02 0.112082E+02 0.926121E+02 0.670754E+03
    18111.00  0.310810E+02 0.149206E+02 0.649599E+02 0.551460E+03
    18211.00  0.286992E+02 0.185614E+02 0.436970E+02 0.449682E+03
    18311.00  0.262814E+02 0.219861E+02 0.277754E+02 0.363412E+03
    18411.00  0.238734E+02 0.250883E+02 0.162762E+02 0.290789E+03
    18511.00  0.215147E+02 0.277941E+02 0.839794E+01 0.230103E+03
    18611.00  0.192383E+02 0.300568E+02 0.344501E+01 0.179792E+03
    18711.00  0.170703E+02 0.318523E+02 0.817565E+00 0.138447E+03
    18811.00  0.150311E+02 0.331751E+02 0.142646E-02 0.104799E+03
    18911.00  0.131351E+02 0.340347E+02 0.558866E+00 0.777210E+02
    19011.00  0.113917E+02 0.344522E+02 0.212012E+01 0.562128E+02
    19111.00  0.980555E+01 0.344574E+02 0.437558E+01 0.393957E+02
    19311.00  0.710395E+01 0.333822E+02 0.998948E+01 0.168640E+02
    19511.00  0.499792E+01 0.311433E+02 0.158724E+02 0.513256E+01
    19711.00  0.341944E+01 0.280951E+02 0.210679E+02 0.512176E+00
    19911.00  0.228181E+01 0.245739E+02 0.250460E+02 0.333243E+00
    20111.00  0.149351E+01 0.208746E+02 0.275870E+02 0.270169E+01
    20311.00  0.968431E+00 0.172368E+02 0.286881E+02 0.629993E+01
    20511.00  0.632257E+00 0.138396E+02 0.284889E+02 0.102320E+02
    20711.00  0.425618E+00 0.108034E+02 0.272138E+02 0.139080E+02
    20911.00  0.304443E+00 0.819476E+01 0.251261E+02 0.169606E+02
    21111.00  0.238404E+00 0.603513E+01 0.224945E+02 0.191862E+02
    21311.00  0.208176E+00 0.431088E+01 0.195690E+02 0.205034E+02
    21511.00  0.202255E+00 0.298341E+01 0.165650E+02 0.209227E+02
    21711.00  0.213895E+00 0.199886E+01 0.136549E+02 0.205230E+02
    21911.00  0.238587E+00 0.129650E+01 0.109651E+02 0.194313E+02
    22111.00  0.272288E+00 0.815561E+00 0.857739E+01 0.178042E+02
    22311.00  0.310474E+00 0.500185E+00 0.653404E+01 0.158112E+02
    22511.00  0.347921E+00 0.302586E+00 0.484463E+01 0.136197E+02
    22711.00  0.379061E+00 0.184572E+00 0.349374E+01 0.113818E+02
    22911.00  0.398656E+00 0.117688E+00 0.244877E+01 0.922528E+01
    23111.00  0.402599E+00 0.823324E-01 0.166715E+01 0.724739E+01
    23311.00  0.388594E+00 0.662046E-01 0.110233E+01 0.551273E+01
    23511.00  0.356604E+00 0.624326E-01 0.708564E+00 0.405460E+01
    23711.00  0.308942E+00 0.676757E-01 0.444109E+00 0.287875E+01
    23911.00  0.250027E+00 0.804441E-01 0.273283E+00 0.196934E+01
    24111.00  0.185824E+00 0.997827E-01 0.167295E+00 0.129550E+01
    24311.00  0.123068E+00 0.124405E+00 0.104223E+00 0.818066E+00
    24511.00  0.683963E-01 0.152272E+00 0.683706E-01 0.495386E+00
    24711.00  0.275009E-01 0.180577E+00 0.492482E-01 0.287975E+00
    24911.00  0.442995E-02 0.206017E+00 0.403868E-01 0.161575E+00
    25111.00  0.111395E-02 0.225261E+00 0.381608E-01 0.887415E-01
    25311.00  0.171739E-01 0.235463E+00 0.407308E-01 0.491398E-01
    25511.00  0.500203E-01 0.234733E+00 0.471834E-01 0.288883E-01
    25711.00  0.952176E-01 0.222465E+00 0.569003E-01 0.193424E-01
    25911.00  0.147055E+00 0.199472E+00 0.691575E-01 0.156711E-01
    26111.00  0.199247E+00 0.167920E+00 0.829361E-01 0.155052E-01
    26311.00  0.245667E+00 0.131059E+00 0.969016E-01 0.178294E-01
    26511.00  0.281040E+00 0.928163E-01 0.109514E+00 0.221930E-01
    26711.00  0.301495E+00 0.572916E-01 0.119212E+00 0.282322E-01
    26911.00  0.304953E+00 0.282452E-01 0.124627E+00 0.354490E-01



         10        10         2       781D   C   D    0.822591500D+05
     204    239
 E STATE HAS LABEL D   
 VIBRATIONAL LEVELS FOR STATE E IN 1/CM FOR J=  9
      -2991.61955      -899.02897
 PROPORTION OF STATE C   
  0.128935E-04 0.678245E-05
 PROPORTION OF STATE D   
  0.999987E+00 0.999993E+00
 TABLE FOR EMISSION PROBABILITIES   E(J=  9,IE) ==>F(J=  9,IF)
         IE==>      0            1
        1.00  0.310140E-15 0.316430E-16
        2.00  0.221733E-12 0.227205E-13
        3.00  0.103091E-10 0.106087E-11
        4.00  0.156565E-09 0.161799E-10
        5.00  0.128806E-08 0.133672E-09
        6.00  0.719099E-08 0.749389E-09
        7.00  0.307224E-07 0.321494E-08
        8.00  0.107917E-06 0.113395E-07
        9.00  0.326434E-06 0.344406E-07
       10.00  0.877581E-06 0.929657E-07
       11.00  0.214464E-05 0.228106E-06
       12.00  0.484418E-05 0.517292E-06
       13.00  0.102416E-04 0.109801E-05
       14.00  0.204674E-04 0.220296E-05
       15.00  0.389653E-04 0.421035E-05
       16.00  0.711115E-04 0.771371E-05
       17.00  0.125048E-03 0.136166E-04
       18.00  0.212781E-03 0.232587E-04
       19.00  0.351607E-03 0.385795E-04
       20.00  0.565931E-03 0.623300E-04
       21.00  0.889547E-03 0.983388E-04
       22.00  0.136848E-02 0.151847E-03
       23.00  0.206447E-02 0.229918E-03
       24.00  0.305920E-02 0.341948E-03
       25.00  0.445939E-02 0.500267E-03
       26.00  0.640287E-02 0.720882E-03
       27.00  0.906573E-02 0.102434E-02
       28.00  0.126708E-01 0.143677E-02
       29.00  0.174975E-01 0.199108E-02
       30.00  0.238932E-01 0.272837E-02
       31.00  0.322863E-01 0.369959E-02
       32.00  0.432014E-01 0.496740E-02
       33.00  0.572769E-01 0.660838E-02
       34.00  0.752838E-01 0.871548E-02
       35.00  0.981489E-01 0.114009E-01
       36.00  0.126979E+00 0.147991E-01
       37.00  0.163091E+00 0.190710E-01
       38.00  0.208039E+00 0.244074E-01
       39.00  0.263657E+00 0.310338E-01
       40.00  0.332091E+00 0.392158E-01
       42.00  0.517835E+00 0.615438E-01
       44.00  0.790526E+00 0.945485E-01
       46.00  0.118376E+01 0.142465E+00
       48.00  0.174164E+01 0.210896E+00
       50.00  0.252139E+01 0.307167E+00
       52.00  0.359642E+01 0.440750E+00
       54.00  0.506005E+01 0.623770E+00
       56.00  0.702977E+01 0.871607E+00
       58.00  0.965240E+01 0.120361E+01
       60.00  0.131099E+02 0.164394E+01
       62.00  0.176264E+02 0.222254E+01
       64.00  0.234760E+02 0.297625E+01
       66.00  0.309917E+02 0.395019E+01
       68.00  0.405765E+02 0.519921E+01
       70.00  0.527150E+02 0.678974E+01
       72.00  0.679881E+02 0.880181E+01
       74.00  0.870884E+02 0.113315E+02
       76.00  0.110840E+03 0.144935E+02
       78.00  0.140217E+03 0.184246E+02
       80.00  0.176373E+03 0.232871E+02
       82.00  0.220663E+03 0.292730E+02
       84.00  0.274680E+03 0.366088E+02
       86.00  0.340288E+03 0.455613E+02
       88.00  0.419668E+03 0.564433E+02
       90.00  0.515361E+03 0.696217E+02
       92.00  0.630328E+03 0.855254E+02
       94.00  0.768013E+03 0.104655E+03
       96.00  0.932416E+03 0.127596E+03
       98.00  0.112818E+04 0.155028E+03
      100.00  0.136069E+04 0.187744E+03
      102.00  0.163619E+04 0.226665E+03
      104.00  0.196190E+04 0.272863E+03
      106.00  0.234618E+04 0.327581E+03
      108.00  0.279874E+04 0.392263E+03
      110.00  0.333077E+04 0.468587E+03
      112.00  0.395525E+04 0.558499E+03
      114.00  0.468719E+04 0.664258E+03
      116.00  0.554401E+04 0.788489E+03
      118.00  0.654586E+04 0.934241E+03
      122.00  0.908202E+04 0.130507E+04
      126.00  0.125319E+05 0.181269E+04
      130.00  0.172150E+05 0.250591E+04
      134.00  0.235656E+05 0.345131E+04
      138.00  0.321759E+05 0.474007E+04
      142.00  0.438572E+05 0.649748E+04
      146.00  0.597248E+05 0.889632E+04
      150.00  0.813135E+05 0.121752E+05
      154.00  0.110731E+06 0.166627E+05
      158.00  0.150843E+06 0.228071E+05
      162.00  0.205462E+06 0.312072E+05
      166.00  0.279439E+06 0.426284E+05
      170.00  0.378415E+06 0.579669E+05
      174.00  0.507746E+06 0.780855E+05
      178.00  0.669886E+06 0.103407E+06
      182.00  0.859858E+06 0.133204E+06
      186.00  0.106042E+07 0.164825E+06
      190.00  0.124205E+07 0.193669E+06
      194.00  0.137297E+07 0.214719E+06
      198.00  0.143486E+07 0.225024E+06
      202.00  0.143074E+07 0.224961E+06
      206.00  0.137864E+07 0.217293E+06
      210.00  0.129979E+07 0.205323E+06
      214.00  0.121095E+07 0.191684E+06
      218.00  0.112260E+07 0.178032E+06
      222.00  0.104013E+07 0.165233E+06
      226.00  0.965716E+06 0.153645E+06
      230.00  0.899749E+06 0.143343E+06
      234.00  0.841762E+06 0.134263E+06
      238.00  0.790935E+06 0.126283E+06
      242.00  0.746359E+06 0.119265E+06
      246.00  0.707166E+06 0.113078E+06
      250.00  0.672573E+06 0.107600E+06
      254.00  0.641902E+06 0.102727E+06
      258.00  0.614576E+06 0.983701E+05
      262.00  0.590107E+06 0.944534E+05
      266.00  0.568084E+06 0.909134E+05
      270.00  0.548165E+06 0.876966E+05
      274.00  0.530058E+06 0.847580E+05
      282.00  0.498342E+06 0.795690E+05
      290.00  0.471397E+06 0.751070E+05
      298.00  0.448112E+06 0.711993E+05
      306.00  0.427674E+06 0.677199E+05
      314.00  0.409483E+06 0.645762E+05
      322.00  0.393085E+06 0.616985E+05
      330.00  0.378133E+06 0.590339E+05
      338.00  0.364361E+06 0.565422E+05
      346.00  0.351563E+06 0.541926E+05
      354.00  0.339576E+06 0.519614E+05
      362.00  0.328273E+06 0.498303E+05
      370.00  0.317553E+06 0.477850E+05
      378.00  0.307334E+06 0.458142E+05
      386.00  0.297547E+06 0.439091E+05
      394.00  0.288141E+06 0.420629E+05
      402.00  0.279074E+06 0.402707E+05
      410.00  0.270310E+06 0.385285E+05
      418.00  0.261821E+06 0.368333E+05
      426.00  0.253584E+06 0.351827E+05
      434.00  0.245578E+06 0.335750E+05
      442.00  0.237788E+06 0.320089E+05
      450.00  0.230202E+06 0.304837E+05
      458.00  0.222810E+06 0.289988E+05
      466.00  0.215601E+06 0.275538E+05
      474.00  0.208569E+06 0.261484E+05
      482.00  0.201707E+06 0.247825E+05
      490.00  0.195008E+06 0.234558E+05
      498.00  0.188469E+06 0.221684E+05
      506.00  0.182085E+06 0.209204E+05
      514.00  0.175853E+06 0.197116E+05
      522.00  0.169770E+06 0.185420E+05
      530.00  0.163831E+06 0.174116E+05
      538.00  0.158034E+06 0.163203E+05
      546.00  0.152377E+06 0.152680E+05
      554.00  0.146856E+06 0.142545E+05
      562.00  0.141471E+06 0.132798E+05
      570.00  0.136218E+06 0.123436E+05
      578.00  0.131097E+06 0.114458E+05
      586.00  0.126104E+06 0.105861E+05
      596.00  0.120041E+06 0.956456E+04
      606.00  0.114173E+06 0.860140E+04
      616.00  0.108497E+06 0.769593E+04
      626.00  0.103009E+06 0.684736E+04
      636.00  0.977073E+05 0.605480E+04
      646.00  0.925876E+05 0.531730E+04
      656.00  0.876470E+05 0.463382E+04
      666.00  0.828823E+05 0.400324E+04
      676.00  0.782905E+05 0.342442E+04
      686.00  0.738684E+05 0.289614E+04
      696.00  0.696130E+05 0.241713E+04
      706.00  0.655211E+05 0.198607E+04
      716.00  0.615893E+05 0.160162E+04
      726.00  0.578143E+05 0.126238E+04
      736.00  0.541929E+05 0.966950E+03
      746.00  0.507218E+05 0.713883E+03
      756.00  0.473979E+05 0.501727E+03
      766.00  0.442179E+05 0.329013E+03
      776.00  0.411785E+05 0.194261E+03
      786.00  0.382765E+05 0.959825E+02
      796.00  0.355087E+05 0.326883E+02
      806.00  0.328718E+05 0.288750E+01
      816.00  0.303628E+05 0.509253E+01
      826.00  0.279785E+05 0.378213E+02
      836.00  0.257159E+05 0.996003E+02
      846.00  0.235718E+05 0.188967E+03
      856.00  0.215431E+05 0.304473E+03
      866.00  0.196269E+05 0.444686E+03
      876.00  0.178200E+05 0.608190E+03
      886.00  0.161196E+05 0.793590E+03
      896.00  0.145226E+05 0.999514E+03
      906.00  0.130262E+05 0.122461E+04
      916.00  0.116274E+05 0.146757E+04
      926.00  0.103234E+05 0.172708E+04
      936.00  0.911130E+04 0.200187E+04
      946.00  0.798832E+04 0.229071E+04
      956.00  0.695170E+04 0.259239E+04
      966.00  0.599871E+04 0.290571E+04
      976.00  0.512666E+04 0.322954E+04
      986.00  0.433290E+04 0.356276E+04
      996.00  0.361482E+04 0.390427E+04
     1006.00  0.296985E+04 0.425304E+04
     1016.00  0.239545E+04 0.460803E+04
     1026.00  0.188914E+04 0.496825E+04
     1036.00  0.144847E+04 0.533276E+04
     1046.00  0.107104E+04 0.570062E+04
     1056.00  0.754484E+03 0.607096E+04
     1066.00  0.496483E+03 0.644293E+04
     1076.00  0.294759E+03 0.681570E+04
     1086.00  0.147077E+03 0.718848E+04
     1096.00  0.512450E+02 0.756053E+04
     1106.00  0.511360E+01 0.793111E+04
     1116.00  0.657656E+01 0.829955E+04
     1126.00  0.535704E+02 0.866519E+04
     1136.00  0.144075E+03 0.902741E+04
     1146.00  0.276112E+03 0.938562E+04
     1156.00  0.447748E+03 0.973927E+04
     1166.00  0.657092E+03 0.100878E+05
     1176.00  0.902295E+03 0.104308E+05
     1186.00  0.118155E+04 0.107677E+05
     1196.00  0.149310E+04 0.110981E+05
     1206.00  0.183521E+04 0.114215E+05
     1216.00  0.220621E+04 0.117377E+05
     1226.00  0.260446E+04 0.120462E+05
     1236.00  0.302836E+04 0.123467E+05
     1246.00  0.347636E+04 0.126389E+05
     1256.00  0.394694E+04 0.129226E+05
     1266.00  0.443863E+04 0.131974E+05
     1276.00  0.494998E+04 0.134631E+05
     1286.00  0.547960E+04 0.137195E+05
     1296.00  0.602613E+04 0.139665E+05
     1306.00  0.658825E+04 0.142038E+05
     1316.00  0.716467E+04 0.144313E+05
     1326.00  0.775416E+04 0.146489E+05
     1336.00  0.835550E+04 0.148564E+05
     1346.00  0.896752E+04 0.150539E+05
     1356.00  0.958909E+04 0.152412E+05
     1366.00  0.102191E+05 0.154183E+05
     1376.00  0.108565E+05 0.155850E+05
     1386.00  0.115002E+05 0.157415E+05
     1396.00  0.121493E+05 0.158878E+05
     1406.00  0.128028E+05 0.160237E+05
     1416.00  0.134597E+05 0.161494E+05
     1426.00  0.141192E+05 0.162650E+05
     1436.00  0.147805E+05 0.163703E+05
     1446.00  0.154426E+05 0.164656E+05
     1456.00  0.161047E+05 0.165510E+05
     1466.00  0.167662E+05 0.166264E+05
     1476.00  0.174262E+05 0.166920E+05
     1486.00  0.180841E+05 0.167479E+05
     1496.00  0.187392E+05 0.167942E+05
     1506.00  0.193907E+05 0.168311E+05
     1516.00  0.200382E+05 0.168587E+05
     1526.00  0.206809E+05 0.168771E+05
     1536.00  0.213184E+05 0.168865E+05
     1546.00  0.219500E+05 0.168870E+05
     1556.00  0.225752E+05 0.168789E+05
     1566.00  0.231936E+05 0.168622E+05
     1576.00  0.238046E+05 0.168372E+05
     1586.00  0.244079E+05 0.168040E+05
     1596.00  0.250029E+05 0.167628E+05
     1606.00  0.255893E+05 0.167138E+05
     1616.00  0.261666E+05 0.166572E+05
     1626.00  0.267347E+05 0.165932E+05
     1636.00  0.272930E+05 0.165221E+05
     1646.00  0.278412E+05 0.164438E+05
     1656.00  0.283791E+05 0.163588E+05
     1666.00  0.289064E+05 0.162672E+05
     1676.00  0.294228E+05 0.161692E+05
     1686.00  0.299281E+05 0.160650E+05
     1696.00  0.304220E+05 0.159548E+05
     1706.00  0.309044E+05 0.158389E+05
     1716.00  0.313750E+05 0.157174E+05
     1726.00  0.318338E+05 0.155906E+05
     1736.00  0.322804E+05 0.154586E+05
     1746.00  0.327148E+05 0.153218E+05
     1756.00  0.331369E+05 0.151802E+05
     1766.00  0.335466E+05 0.150341E+05
     1776.00  0.339436E+05 0.148836E+05
     1786.00  0.343281E+05 0.147291E+05
     1796.00  0.346998E+05 0.145707E+05
     1806.00  0.350587E+05 0.144086E+05
     1816.00  0.354049E+05 0.142430E+05
     1826.00  0.357382E+05 0.140742E+05
     1836.00  0.360586E+05 0.139022E+05
     1846.00  0.363662E+05 0.137273E+05
     1856.00  0.366609E+05 0.135497E+05
     1866.00  0.369427E+05 0.133696E+05
     1876.00  0.372116E+05 0.131871E+05
     1886.00  0.374678E+05 0.130025E+05
     1896.00  0.377111E+05 0.128159E+05
     1906.00  0.379417E+05 0.126274E+05
     1916.00  0.381596E+05 0.124373E+05
     1926.00  0.383648E+05 0.122458E+05
     1936.00  0.385576E+05 0.120530E+05
     1946.00  0.387378E+05 0.118590E+05
     1956.00  0.389057E+05 0.116640E+05
     1966.00  0.390613E+05 0.114682E+05
     1976.00  0.392047E+05 0.112717E+05
     1986.00  0.393360E+05 0.110748E+05
     1996.00  0.394553E+05 0.108774E+05
     2006.00  0.395628E+05 0.106798E+05
     2016.00  0.396586E+05 0.104821E+05
     2026.00  0.397427E+05 0.102844E+05
     2036.00  0.398155E+05 0.100869E+05
     2046.00  0.398768E+05 0.988963E+04
     2056.00  0.399271E+05 0.969282E+04
     2066.00  0.399663E+05 0.949654E+04
     2076.00  0.399946E+05 0.930091E+04
     2086.00  0.400122E+05 0.910604E+04
     2096.00  0.400193E+05 0.891204E+04
     2106.00  0.400160E+05 0.871901E+04
     2116.00  0.400024E+05 0.852705E+04
     2126.00  0.399787E+05 0.833625E+04
     2136.00  0.399452E+05 0.814673E+04
     2146.00  0.399020E+05 0.795855E+04
     2156.00  0.398492E+05 0.777181E+04
     2166.00  0.397870E+05 0.758660E+04
     2176.00  0.397157E+05 0.740298E+04
     2186.00  0.396354E+05 0.722104E+04
     2196.00  0.395462E+05 0.704085E+04
     2206.00  0.394484E+05 0.686247E+04
     2216.00  0.393421E+05 0.668597E+04
     2226.00  0.392275E+05 0.651141E+04
     2236.00  0.391048E+05 0.633885E+04
     2246.00  0.389741E+05 0.616834E+04
     2256.00  0.388358E+05 0.599995E+04
     2266.00  0.386898E+05 0.583371E+04
     2276.00  0.385366E+05 0.566967E+04
     2286.00  0.383761E+05 0.550789E+04
     2296.00  0.382087E+05 0.534839E+04
     2306.00  0.380344E+05 0.519122E+04
     2316.00  0.378535E+05 0.503641E+04
     2326.00  0.376661E+05 0.488399E+04
     2336.00  0.374725E+05 0.473399E+04
     2346.00  0.372728E+05 0.458644E+04
     2356.00  0.370672E+05 0.444136E+04
     2366.00  0.368558E+05 0.429877E+04
     2376.00  0.366390E+05 0.415870E+04
     2386.00  0.364167E+05 0.402116E+04
     2396.00  0.361893E+05 0.388617E+04
     2406.00  0.359569E+05 0.375373E+04
     2416.00  0.357197E+05 0.362386E+04
     2426.00  0.354778E+05 0.349657E+04
     2436.00  0.352314E+05 0.337186E+04
     2446.00  0.349807E+05 0.324974E+04
     2456.00  0.347258E+05 0.313020E+04
     2466.00  0.344670E+05 0.301325E+04
     2476.00  0.342044E+05 0.289889E+04
     2486.00  0.339381E+05 0.278710E+04
     2496.00  0.336683E+05 0.267790E+04
     2506.00  0.333952E+05 0.257126E+04
     2516.00  0.331190E+05 0.246719E+04
     2526.00  0.328397E+05 0.236567E+04
     2536.00  0.325576E+05 0.226668E+04
     2546.00  0.322727E+05 0.217022E+04
     2556.00  0.319853E+05 0.207628E+04
     2566.00  0.316955E+05 0.198483E+04
     2576.00  0.314035E+05 0.189585E+04
     2586.00  0.311093E+05 0.180934E+04
     2596.00  0.308131E+05 0.172527E+04
     2606.00  0.305150E+05 0.164362E+04
     2616.00  0.302153E+05 0.156436E+04
     2626.00  0.299140E+05 0.148748E+04
     2636.00  0.296112E+05 0.141295E+04
     2646.00  0.293072E+05 0.134075E+04
     2656.00  0.290019E+05 0.127085E+04
     2666.00  0.286956E+05 0.120323E+04
     2676.00  0.283884E+05 0.113785E+04
     2686.00  0.280803E+05 0.107469E+04
     2696.00  0.277715E+05 0.101373E+04
     2706.00  0.274622E+05 0.954927E+03
     2716.00  0.271523E+05 0.898258E+03
     2726.00  0.268421E+05 0.843691E+03
     2736.00  0.265317E+05 0.791195E+03
     2746.00  0.262211E+05 0.740741E+03
     2756.00  0.259105E+05 0.692294E+03
     2766.00  0.255999E+05 0.645824E+03
     2776.00  0.252895E+05 0.601298E+03
     2786.00  0.249793E+05 0.558683E+03
     2796.00  0.246695E+05 0.517946E+03
     2806.00  0.243601E+05 0.479053E+03
     2816.00  0.240513E+05 0.441970E+03
     2826.00  0.237431E+05 0.406665E+03
     2836.00  0.234356E+05 0.373101E+03
     2846.00  0.231289E+05 0.341246E+03
     2856.00  0.228230E+05 0.311065E+03
     2866.00  0.225182E+05 0.282523E+03
     2876.00  0.222143E+05 0.255586E+03
     2886.00  0.219116E+05 0.230219E+03
     2896.00  0.216100E+05 0.206389E+03
     2906.00  0.213096E+05 0.184060E+03
     2916.00  0.210106E+05 0.163198E+03
     2926.00  0.207130E+05 0.143768E+03
     2936.00  0.204168E+05 0.125737E+03
     2946.00  0.201221E+05 0.109069E+03
     2956.00  0.198290E+05 0.937316E+02
     2966.00  0.195375E+05 0.796901E+02
     2976.00  0.192477E+05 0.669108E+02
     2986.00  0.189596E+05 0.553602E+02
     2996.00  0.186733E+05 0.450049E+02
     3006.00  0.183889E+05 0.358118E+02
     3016.00  0.181063E+05 0.277480E+02
     3026.00  0.178257E+05 0.207809E+02
     3036.00  0.175470E+05 0.148781E+02
     3046.00  0.172703E+05 0.100074E+02
     3056.00  0.169957E+05 0.613727E+01
     3066.00  0.167232E+05 0.323605E+01
     3076.00  0.164529E+05 0.127263E+01
     3086.00  0.161847E+05 0.216205E+00
     3096.00  0.159187E+05 0.362879E-01
     3106.00  0.156549E+05 0.702761E+00
     3116.00  0.153934E+05 0.218587E+01
     3126.00  0.151342E+05 0.445623E+01
     3136.00  0.148774E+05 0.748484E+01
     3146.00  0.146228E+05 0.112431E+02
     3156.00  0.143707E+05 0.157028E+02
     3166.00  0.141209E+05 0.208360E+02
     3176.00  0.138736E+05 0.266155E+02
     3186.00  0.136287E+05 0.330143E+02
     3196.00  0.133863E+05 0.400056E+02
     3206.00  0.131464E+05 0.475636E+02
     3216.00  0.129089E+05 0.556623E+02
     3226.00  0.126740E+05 0.642766E+02
     3236.00  0.124415E+05 0.733817E+02
     3246.00  0.122117E+05 0.829531E+02
     3256.00  0.119843E+05 0.929668E+02
     3266.00  0.117595E+05 0.103399E+03
     3276.00  0.115373E+05 0.114228E+03
     3286.00  0.113177E+05 0.125430E+03
     3296.00  0.111006E+05 0.136982E+03
     3306.00  0.108861E+05 0.148865E+03
     3316.00  0.106742E+05 0.161055E+03
     3326.00  0.104649E+05 0.173533E+03
     3336.00  0.102582E+05 0.186277E+03
     3346.00  0.100541E+05 0.199269E+03
     3356.00  0.985258E+04 0.212489E+03
     3366.00  0.965366E+04 0.225917E+03
     3376.00  0.945733E+04 0.239535E+03
     3386.00  0.926359E+04 0.253326E+03
     3396.00  0.907243E+04 0.267270E+03
     3406.00  0.888386E+04 0.281352E+03
     3416.00  0.869786E+04 0.295555E+03
     3426.00  0.851444E+04 0.309861E+03
     3436.00  0.833358E+04 0.324255E+03
     3446.00  0.815527E+04 0.338722E+03
     3456.00  0.797952E+04 0.353247E+03
     3466.00  0.780630E+04 0.367815E+03
     3476.00  0.763561E+04 0.382411E+03
     3486.00  0.746744E+04 0.397023E+03
     3496.00  0.730178E+04 0.411636E+03
     3506.00  0.713862E+04 0.426238E+03
     3516.00  0.697795E+04 0.440816E+03
     3526.00  0.681974E+04 0.455358E+03
     3536.00  0.666399E+04 0.469852E+03
     3546.00  0.651069E+04 0.484287E+03
     3556.00  0.635982E+04 0.498651E+03
     3566.00  0.621136E+04 0.512935E+03
     3576.00  0.606530E+04 0.527128E+03
     3586.00  0.592163E+04 0.541220E+03
     3596.00  0.578032E+04 0.555201E+03
     3606.00  0.564137E+04 0.569063E+03
     3616.00  0.550475E+04 0.582797E+03
     3626.00  0.537044E+04 0.596395E+03
     3636.00  0.523844E+04 0.609847E+03
     3646.00  0.510872E+04 0.623147E+03
     3656.00  0.498125E+04 0.636287E+03
     3666.00  0.485604E+04 0.649261E+03
     3676.00  0.473304E+04 0.662060E+03
     3686.00  0.461225E+04 0.674680E+03
     3696.00  0.449365E+04 0.687113E+03
     3706.00  0.437721E+04 0.699354E+03
     3716.00  0.426291E+04 0.711398E+03
     3726.00  0.415073E+04 0.723239E+03
     3736.00  0.404066E+04 0.734872E+03
     3746.00  0.393267E+04 0.746292E+03
     3756.00  0.382675E+04 0.757496E+03
     3766.00  0.372286E+04 0.768480E+03
     3776.00  0.362098E+04 0.779238E+03
     3786.00  0.352111E+04 0.789769E+03
     3796.00  0.342321E+04 0.800068E+03
     3806.00  0.332726E+04 0.810132E+03
     3816.00  0.323324E+04 0.819959E+03
     3826.00  0.314113E+04 0.829546E+03
     3836.00  0.305091E+04 0.838891E+03
     3846.00  0.296255E+04 0.847991E+03
     3856.00  0.287603E+04 0.856844E+03
     3866.00  0.279132E+04 0.865450E+03
     3876.00  0.270842E+04 0.873806E+03
     3886.00  0.262729E+04 0.881911E+03
     3896.00  0.254790E+04 0.889764E+03
     3906.00  0.247025E+04 0.897364E+03
     3916.00  0.239430E+04 0.904710E+03
     3926.00  0.232004E+04 0.911803E+03
     3936.00  0.224743E+04 0.918641E+03
     3946.00  0.217646E+04 0.925225E+03
     3956.00  0.210711E+04 0.931554E+03
     3966.00  0.203935E+04 0.937628E+03
     3976.00  0.197316E+04 0.943449E+03
     3986.00  0.190852E+04 0.949016E+03
     3996.00  0.184540E+04 0.954330E+03
     4006.00  0.178379E+04 0.959391E+03
     4016.00  0.172366E+04 0.964201E+03
     4026.00  0.166498E+04 0.968761E+03
     4036.00  0.160775E+04 0.973072E+03
     4046.00  0.155192E+04 0.977135E+03
     4056.00  0.149749E+04 0.980951E+03
     4066.00  0.144443E+04 0.984523E+03
     4076.00  0.139272E+04 0.987851E+03
     4086.00  0.134233E+04 0.990938E+03
     4096.00  0.129326E+04 0.993786E+03
     4106.00  0.124546E+04 0.996395E+03
     4116.00  0.119893E+04 0.998769E+03
     4126.00  0.115364E+04 0.100091E+04
     4136.00  0.110958E+04 0.100282E+04
     4146.00  0.106671E+04 0.100450E+04
     4156.00  0.102503E+04 0.100595E+04
     4166.00  0.984499E+03 0.100718E+04
     4176.00  0.945111E+03 0.100819E+04
     4186.00  0.906841E+03 0.100898E+04
     4196.00  0.869670E+03 0.100955E+04
     4206.00  0.833578E+03 0.100991E+04
     4216.00  0.798545E+03 0.101006E+04
     4226.00  0.764551E+03 0.101000E+04
     4236.00  0.731578E+03 0.100973E+04
     4246.00  0.699605E+03 0.100927E+04
     4256.00  0.668614E+03 0.100860E+04
     4266.00  0.638585E+03 0.100774E+04
     4276.00  0.609501E+03 0.100668E+04
     4286.00  0.581343E+03 0.100543E+04
     4296.00  0.554092E+03 0.100400E+04
     4306.00  0.527731E+03 0.100239E+04
     4316.00  0.502241E+03 0.100059E+04
     4326.00  0.477604E+03 0.998613E+03
     4336.00  0.453803E+03 0.996463E+03
     4346.00  0.430822E+03 0.994143E+03
     4356.00  0.408641E+03 0.991655E+03
     4366.00  0.387246E+03 0.989003E+03
     4376.00  0.366618E+03 0.986189E+03
     4386.00  0.346741E+03 0.983218E+03
     4396.00  0.327599E+03 0.980092E+03
     4406.00  0.309176E+03 0.976815E+03
     4416.00  0.291456E+03 0.973390E+03
     4426.00  0.274423E+03 0.969820E+03
     4436.00  0.258061E+03 0.966109E+03
     4446.00  0.242355E+03 0.962260E+03
     4456.00  0.227290E+03 0.958277E+03
     4466.00  0.212851E+03 0.954162E+03
     4476.00  0.199023E+03 0.949919E+03
     4486.00  0.185792E+03 0.945551E+03
     4511.00  0.155230E+03 0.934107E+03
     4536.00  0.128089E+03 0.921956E+03
     4561.00  0.104158E+03 0.909146E+03
     4586.00  0.832331E+02 0.895728E+03
     4611.00  0.651194E+02 0.881751E+03
     4636.00  0.496288E+02 0.867263E+03
     4661.00  0.365809E+02 0.852310E+03
     4686.00  0.258029E+02 0.836937E+03
     4711.00  0.171292E+02 0.821190E+03
     4736.00  0.104014E+02 0.805111E+03
     4761.00  0.546829E+01 0.788743E+03
     4786.00  0.218543E+01 0.772125E+03
     4811.00  0.415250E+00 0.755298E+03
     4836.00  0.267970E-01 0.738297E+03
     4861.00  0.895575E+00 0.721159E+03
     4886.00  0.290339E+01 0.703919E+03
     4911.00  0.593818E+01 0.686609E+03
     4936.00  0.989385E+01 0.669263E+03
     4961.00  0.146701E+02 0.651908E+03
     4986.00  0.201722E+02 0.634575E+03
     5011.00  0.263109E+02 0.617290E+03
     5036.00  0.330022E+02 0.600078E+03
     5061.00  0.401672E+02 0.582965E+03
     5086.00  0.477319E+02 0.565971E+03
     5111.00  0.556270E+02 0.549120E+03
     5136.00  0.637877E+02 0.532431E+03
     5161.00  0.721538E+02 0.515922E+03
     5186.00  0.806691E+02 0.499610E+03
     5211.00  0.892814E+02 0.483512E+03
     5236.00  0.979426E+02 0.467641E+03
     5261.00  0.106608E+03 0.452012E+03
     5286.00  0.115237E+03 0.436637E+03
     5311.00  0.123792E+03 0.421526E+03
     5336.00  0.132238E+03 0.406690E+03
     5361.00  0.140544E+03 0.392137E+03
     5386.00  0.148682E+03 0.377875E+03
     5411.00  0.156626E+03 0.363911E+03
     5436.00  0.164353E+03 0.350251E+03
     5461.00  0.171843E+03 0.336900E+03
     5511.00  0.186041E+03 0.311140E+03
     5561.00  0.199101E+03 0.286654E+03
     5611.00  0.210936E+03 0.263454E+03
     5661.00  0.221488E+03 0.241541E+03
     5711.00  0.230722E+03 0.220906E+03
     5761.00  0.238627E+03 0.201531E+03
     5811.00  0.245207E+03 0.183394E+03
     5861.00  0.250485E+03 0.166463E+03
     5911.00  0.254494E+03 0.150702E+03
     5961.00  0.257281E+03 0.136073E+03
     6011.00  0.258900E+03 0.122531E+03
     6061.00  0.259413E+03 0.110031E+03
     6111.00  0.258886E+03 0.985241E+02
     6161.00  0.257391E+03 0.879620E+02
     6211.00  0.255000E+03 0.782941E+02
     6261.00  0.251789E+03 0.694699E+02
     6311.00  0.247834E+03 0.614393E+02
     6361.00  0.243208E+03 0.541522E+02
     6411.00  0.237987E+03 0.475599E+02
     6461.00  0.232241E+03 0.416144E+02
     6511.00  0.226040E+03 0.362693E+02
     6561.00  0.219452E+03 0.314798E+02
     6611.00  0.212540E+03 0.272027E+02
     6661.00  0.205364E+03 0.233967E+02
     6711.00  0.197983E+03 0.200224E+02
     6761.00  0.190448E+03 0.170427E+02
     6811.00  0.182810E+03 0.144221E+02
     6861.00  0.175116E+03 0.121275E+02
     6911.00  0.167406E+03 0.101276E+02
     6961.00  0.159719E+03 0.839341E+01
     7011.00  0.152091E+03 0.689774E+01
     7061.00  0.144552E+03 0.561542E+01
     7111.00  0.137131E+03 0.452315E+01
     7161.00  0.129851E+03 0.359949E+01
     7211.00  0.122735E+03 0.282472E+01
     7261.00  0.115802E+03 0.218082E+01
     7311.00  0.109066E+03 0.165137E+01
     7361.00  0.102541E+03 0.122142E+01
     7411.00  0.962382E+02 0.877470E+00
     7511.00  0.843295E+02 0.400138E+00
     7611.00  0.733831E+02 0.136451E+00
     7711.00  0.634143E+02 0.207645E-01
     7811.00  0.544152E+02 0.215032E-02
     7911.00  0.463598E+02 0.420210E-01
     8011.00  0.392077E+02 0.111975E+00
     8111.00  0.329082E+02 0.191876E+00
     8211.00  0.274033E+02 0.268168E+00
     8311.00  0.226306E+02 0.332423E+00
     8411.00  0.185254E+02 0.380108E+00
     8511.00  0.150230E+02 0.409559E+00
     8611.00  0.120598E+02 0.421139E+00
     8711.00  0.957450E+01 0.416554E+00
     8811.00  0.750913E+01 0.398325E+00
     8911.00  0.580950E+01 0.369375E+00
     9011.00  0.442564E+01 0.332723E+00
     9111.00  0.331199E+01 0.291268E+00
     9211.00  0.242743E+01 0.247639E+00
     9311.00  0.173525E+01 0.204110E+00
     9411.00  0.120299E+01 0.162549E+00
     9511.00  0.802208E+00 0.124407E+00
     9611.00  0.508212E+00 0.907366E-01
     9711.00  0.299793E+00 0.622134E-01
     9811.00  0.158899E+00 0.391838E-01
     9911.00  0.703218E-01 0.217099E-01
    10011.00  0.213917E-01 0.961974E-02
    10111.00  0.167318E-02 0.255659E-02
    10211.00  0.268386E-02 0.262886E-04
    10311.00  0.176288E-01 0.144009E-02
    10411.00  0.411565E-01 0.615295E-02
    10511.00  0.691371E-01 0.134965E-01
    10611.00  0.984629E-01 0.228066E-01
    10711.00  0.126872E+00 0.334456E-01
    10811.00  0.152791E+00 0.448195E-01
    10911.00  0.175202E+00 0.563908E-01
    11011.00  0.193523E+00 0.676868E-01
    11111.00  0.207512E+00 0.783045E-01
    11211.00  0.217181E+00 0.879129E-01
    11311.00  0.222728E+00 0.962522E-01
    11411.00  0.224478E+00 0.103131E+00
    11511.00  0.222841E+00 0.108423E+00
    11611.00  0.218269E+00 0.112060E+00
    11711.00  0.211235E+00 0.114029E+00
    11811.00  0.202207E+00 0.114361E+00
    11911.00  0.191629E+00 0.113130E+00
    12011.00  0.179920E+00 0.110442E+00
    12111.00  0.167455E+00 0.106431E+00
    12211.00  0.154568E+00 0.101251E+00
    12311.00  0.141551E+00 0.950714E-01
    12411.00  0.128648E+00 0.880737E-01
    12511.00  0.116062E+00 0.804436E-01
    12611.00  0.103957E+00 0.723691E-01
    12711.00  0.924566E-01 0.640361E-01
    12811.00  0.816548E-01 0.556261E-01
    12911.00  0.716139E-01 0.473134E-01
    13011.00  0.623709E-01 0.392630E-01
    13111.00  0.539411E-01 0.316296E-01
    13211.00  0.463212E-01 0.245562E-01
    13311.00  0.394930E-01 0.181732E-01
    13411.00  0.334265E-01 0.125984E-01
    13511.00  0.280824E-01 0.793638E-02
    13611.00  0.234148E-01 0.427896E-02
    13711.00  0.193731E-01 0.170523E-02
    13811.00  0.159042E-01 0.282021E-03
    13911.00  0.129539E-01 0.644544E-04
    14011.00  0.104681E-01 0.109657E-02
    14111.00  0.839397E-02 0.341203E-02
    14211.00  0.668088E-02 0.703484E-02
    14311.00  0.528104E-02 0.119802E-01
    14411.00  0.414994E-02 0.182550E-01
    14511.00  0.324681E-02 0.258592E-01
    14611.00  0.253474E-02 0.347859E-01
    14711.00  0.198090E-02 0.450224E-01
    14811.00  0.155653E-02 0.565510E-01
    14911.00  0.123694E-02 0.693496E-01
    15011.00  0.100138E-02 0.833919E-01
    15111.00  0.832927E-03 0.986488E-01
    15211.00  0.718279E-03 0.115088E+00
    15311.00  0.647577E-03 0.132676E+00
    15411.00  0.614159E-03 0.151375E+00
    15511.00  0.614317E-03 0.171150E+00
    15611.00  0.647052E-03 0.191960E+00
    15711.00  0.713811E-03 0.213767E+00
    15811.00  0.818233E-03 0.236530E+00
    15911.00  0.965889E-03 0.260209E+00
    16011.00  0.116404E-02 0.284765E+00
    16111.00  0.142137E-02 0.310156E+00
    16211.00  0.174779E-02 0.336341E+00
    16311.00  0.215415E-02 0.363282E+00
    16411.00  0.265207E-02 0.390939E+00
    16511.00  0.325371E-02 0.419270E+00
    16611.00  0.397158E-02 0.448238E+00
    16711.00  0.481834E-02 0.477803E+00
    16811.00  0.580665E-02 0.507927E+00
    16911.00  0.694900E-02 0.538570E+00
    17011.00  0.825753E-02 0.569696E+00
    17111.00  0.974395E-02 0.601265E+00
    17211.00  0.114194E-01 0.633240E+00
    17311.00  0.132942E-01 0.665584E+00
    17411.00  0.153781E-01 0.698257E+00
    17511.00  0.176797E-01 0.731221E+00
    17611.00  0.202070E-01 0.764440E+00
    17711.00  0.229666E-01 0.797874E+00
    17811.00  0.259642E-01 0.831484E+00
    17911.00  0.292046E-01 0.865233E+00
    18011.00  0.326910E-01 0.899082E+00
    18111.00  0.364259E-01 0.932989E+00
    18211.00  0.404104E-01 0.966917E+00
    18311.00  0.446445E-01 0.100083E+01
    18411.00  0.491269E-01 0.103467E+01
    18511.00  0.538556E-01 0.106842E+01
    18611.00  0.588270E-01 0.110202E+01
    18711.00  0.640367E-01 0.113544E+01
    18811.00  0.694792E-01 0.116864E+01
    18911.00  0.751481E-01 0.120157E+01
    19011.00  0.810359E-01 0.123419E+01
    19111.00  0.871342E-01 0.126646E+01
    19311.00  0.999257E-01 0.132978E+01
    19511.00  0.113440E+00 0.139119E+01
    19711.00  0.127585E+00 0.145036E+01
    19911.00  0.142260E+00 0.150696E+01
    20111.00  0.157356E+00 0.156067E+01
    20311.00  0.172762E+00 0.161118E+01
    20511.00  0.188360E+00 0.165819E+01
    20711.00  0.204033E+00 0.170143E+01
    20911.00  0.219663E+00 0.174063E+01
    21111.00  0.235131E+00 0.177556E+01
    21311.00  0.250320E+00 0.180599E+01
    21511.00  0.265115E+00 0.183174E+01
    21711.00  0.279405E+00 0.185264E+01
    21911.00  0.293081E+00 0.186856E+01
    22111.00  0.306037E+00 0.187940E+01
    22311.00  0.318174E+00 0.188507E+01
    22511.00  0.329395E+00 0.188555E+01
    22711.00  0.339610E+00 0.188082E+01
    22911.00  0.348734E+00 0.187092E+01
    23111.00  0.356689E+00 0.185591E+01
    23311.00  0.363403E+00 0.183587E+01
    23511.00  0.368816E+00 0.181095E+01
    23711.00  0.372871E+00 0.178129E+01
    23911.00  0.375525E+00 0.174710E+01
    24111.00  0.376743E+00 0.170858E+01
    24311.00  0.376503E+00 0.166599E+01
    24511.00  0.374793E+00 0.161959E+01
    24711.00  0.371616E+00 0.156970E+01
    24911.00  0.366986E+00 0.151661E+01
    25111.00  0.360931E+00 0.146066E+01
    25311.00  0.353493E+00 0.140221E+01
    25511.00  0.344727E+00 0.134160E+01
    25711.00  0.334704E+00 0.127921E+01
    25911.00  0.323503E+00 0.121541E+01
    26111.00  0.311219E+00 0.115056E+01
    26311.00  0.297954E+00 0.108504E+01
    26511.00  0.283826E+00 0.101922E+01
    26711.00  0.268956E+00 0.953455E+00
    26911.00  0.253475E+00 0.888094E+00

