         22        22         7      1181C   C   D    0.822591500D+05
 E STATE HAS LABEL C   
 VIBRATIONAL LEVELS FOR STATE E IN 1/CM FOR J= 21
      -8319.53938     -6622.44853     -5053.69785     -3617.53323
     -2320.68430     -1174.32162      -196.89803
 PROPORTION OF STATE C   
  0.999999E+00 0.999997E+00 0.999996E+00 0.999995E+00 0.999995E+00
  0.999995E+00 0.999995E+00
 PROPORTION OF STATE D   
  0.114770E-05 0.296365E-05 0.417021E-05 0.490866E-05 0.531681E-05
  0.550393E-05 0.547972E-05
 TABLE FOR EMISSION PROBABILITIES   E(J= 21,IE) ==>F(J= 21,IF)
         IE==>      0            1            2            3
        1.00  0.000000E+00 0.000000E+00 0.000000E+00 0.000000E+00
        2.00  0.000000E+00 0.000000E+00 0.000000E+00 0.000000E+00
        3.00  0.000000E+00 0.000000E+00 0.000000E+00 0.000000E+00
        4.00  0.000000E+00 0.000000E+00 0.000000E+00 0.000000E+00
        5.00  0.000000E+00 0.000000E+00 0.000000E+00 0.000000E+00
        6.00  0.000000E+00 0.000000E+00 0.000000E+00 0.000000E+00
        7.00  0.000000E+00 0.000000E+00 0.000000E+00 0.000000E+00
        8.00  0.000000E+00 0.000000E+00 0.000000E+00 0.000000E+00
        9.00  0.000000E+00 0.000000E+00 0.000000E+00 0.609838E-37
       10.00  0.000000E+00 0.000000E+00 0.000000E+00 0.588189E-36
       11.00  0.000000E+00 0.142784E-37 0.458671E-37 0.457066E-35
       12.00  0.000000E+00 0.926494E-37 0.295848E-36 0.297137E-34
       13.00  0.000000E+00 0.517538E-36 0.164272E-35 0.166291E-33
       14.00  0.000000E+00 0.254467E-35 0.802866E-35 0.819158E-33
       15.00  0.000000E+00 0.112090E-34 0.351527E-34 0.361501E-32
       16.00  0.000000E+00 0.448655E-34 0.139855E-33 0.144965E-31
       17.00  0.243815E-37 0.165090E-33 0.511509E-33 0.534409E-31
       18.00  0.842823E-37 0.563854E-33 0.173644E-32 0.182862E-30
       19.00  0.272597E-36 0.180200E-32 0.551568E-32 0.585480E-30
       20.00  0.830577E-36 0.542560E-32 0.165058E-31 0.176605E-29
       21.00  0.239795E-35 0.154801E-31 0.468056E-31 0.504808E-29
       22.00  0.659291E-35 0.420636E-31 0.126404E-30 0.137421E-28
       23.00  0.173372E-34 0.109328E-30 0.326518E-30 0.357828E-28
       24.00  0.437710E-34 0.272833E-30 0.809812E-30 0.894602E-28
       25.00  0.106450E-33 0.655905E-30 0.193479E-29 0.215459E-27
       26.00  0.250109E-33 0.152349E-29 0.446612E-29 0.501361E-27
       27.00  0.569204E-33 0.342784E-29 0.998620E-29 0.113010E-26
       28.00  0.125767E-32 0.748839E-29 0.216796E-28 0.247327E-26
       29.00  0.270348E-32 0.159164E-28 0.457910E-28 0.526635E-26
       30.00  0.566432E-32 0.329760E-28 0.942755E-28 0.109306E-25
       31.00  0.115870E-31 0.667076E-28 0.189511E-27 0.221513E-25
       32.00  0.231767E-31 0.131958E-27 0.372515E-27 0.438974E-25
       33.00  0.453928E-31 0.255612E-27 0.717016E-27 0.851841E-25
       34.00  0.871611E-31 0.485458E-27 0.135311E-26 0.162070E-24
       35.00  0.164270E-30 0.904998E-27 0.250641E-26 0.302672E-24
       36.00  0.304191E-30 0.165777E-26 0.456188E-26 0.555416E-24
       37.00  0.553998E-30 0.298674E-26 0.816629E-26 0.100245E-23
       38.00  0.993176E-30 0.529729E-26 0.143906E-25 0.178108E-23
       39.00  0.175411E-29 0.925651E-26 0.249841E-25 0.311776E-23
       40.00  0.305441E-29 0.159480E-25 0.427664E-25 0.538102E-23
       42.00  0.889977E-29 0.454995E-25 0.120432E-24 0.154059E-22
       44.00  0.246922E-28 0.123633E-24 0.322975E-24 0.420078E-22
       46.00  0.655178E-28 0.321344E-24 0.828462E-24 0.109566E-21
       48.00  0.166886E-27 0.801980E-24 0.204030E-23 0.274391E-21
       50.00  0.409441E-27 0.192821E-23 0.484038E-23 0.661999E-21
       52.00  0.970389E-27 0.447938E-23 0.110943E-22 0.154315E-20
       54.00  0.222748E-26 0.100805E-22 0.246309E-22 0.348462E-20
       56.00  0.496369E-26 0.220269E-22 0.530922E-22 0.764015E-20
       58.00  0.107601E-25 0.468306E-22 0.111339E-21 0.162985E-19
       60.00  0.227334E-25 0.970557E-22 0.227583E-21 0.338923E-19
       62.00  0.468893E-25 0.196406E-21 0.454188E-21 0.688163E-19
       64.00  0.945598E-25 0.388679E-21 0.886324E-21 0.136640E-18
       66.00  0.186708E-24 0.753228E-21 0.169359E-20 0.265678E-18
       68.00  0.361400E-24 0.143122E-20 0.317268E-20 0.506493E-18
       70.00  0.686565E-24 0.266949E-20 0.583369E-20 0.947820E-18
       72.00  0.128144E-23 0.489267E-20 0.105394E-19 0.174289E-17
       74.00  0.235212E-23 0.882019E-20 0.187265E-19 0.315224E-17
       76.00  0.424960E-23 0.156534E-19 0.327531E-19 0.561259E-17
       78.00  0.756349E-23 0.273712E-19 0.564361E-19 0.984587E-17
       80.00  0.132712E-22 0.471910E-19 0.958732E-19 0.170302E-16
       82.00  0.229730E-22 0.802805E-19 0.160685E-18 0.290646E-16
       84.00  0.392579E-22 0.134843E-18 0.265874E-18 0.489746E-16
       86.00  0.662676E-22 0.223756E-18 0.434567E-18 0.815268E-16
       88.00  0.110557E-21 0.367024E-18 0.702040E-18 0.134152E-15
       90.00  0.182395E-21 0.595410E-18 0.112155E-17 0.218318E-15
       92.00  0.297708E-21 0.955766E-18 0.177273E-17 0.351552E-15
       94.00  0.480976E-21 0.151880E-17 0.277348E-17 0.560398E-15
       96.00  0.769477E-21 0.239027E-17 0.429692E-17 0.884702E-15
       98.00  0.121951E-20 0.372708E-17 0.659492E-17 0.138377E-14
      100.00  0.191538E-20 0.576006E-17 0.100311E-16 0.214519E-14
      102.00  0.298237E-20 0.882627E-17 0.151259E-16 0.329725E-14
      104.00  0.460520E-20 0.134142E-16 0.226192E-16 0.502653E-14
      106.00  0.705434E-20 0.202266E-16 0.335545E-16 0.760245E-14
      108.00  0.107229E-19 0.302681E-16 0.493934E-16 0.114113E-13
      110.00  0.161786E-19 0.449647E-16 0.721695E-16 0.170033E-13
      112.00  0.242358E-19 0.663279E-16 0.104693E-15 0.251575E-13
      114.00  0.360556E-19 0.971785E-16 0.150825E-15 0.369695E-13
      116.00  0.532832E-19 0.141448E-15 0.215833E-15 0.539718E-13
      118.00  0.782366E-19 0.204585E-15 0.306868E-15 0.782952E-13
      122.00  0.165588E-18 0.420291E-15 0.608911E-15 0.161800E-12
      126.00  0.342399E-18 0.843913E-15 0.118023E-14 0.326793E-12
      130.00  0.692720E-18 0.165862E-14 0.223773E-14 0.646024E-12
      134.00  0.137304E-17 0.319503E-14 0.415573E-14 0.125164E-11
      138.00  0.266955E-17 0.603949E-14 0.756822E-14 0.237952E-11
      142.00  0.509687E-17 0.112150E-13 0.135305E-13 0.444378E-11
      146.00  0.956578E-17 0.204792E-13 0.237701E-13 0.816035E-11
      150.00  0.176642E-16 0.368079E-13 0.410709E-13 0.147489E-10
      154.00  0.321219E-16 0.651706E-13 0.698525E-13 0.262587E-10
      158.00  0.575689E-16 0.113760E-12 0.117032E-12 0.460889E-10
      162.00  0.101760E-15 0.195919E-12 0.193286E-12 0.798082E-10
      166.00  0.177530E-15 0.333124E-12 0.314889E-12 0.136434E-09
      170.00  0.305877E-15 0.559567E-12 0.506322E-12 0.230407E-09
      174.00  0.520789E-15 0.929117E-12 0.803987E-12 0.384611E-09
      178.00  0.876713E-15 0.152581E-11 0.126136E-11 0.634951E-09
      182.00  0.146002E-14 0.247947E-11 0.195614E-11 0.103722E-08
      186.00  0.240644E-14 0.398893E-11 0.299996E-11 0.167735E-08
      190.00  0.392741E-14 0.635606E-11 0.455152E-11 0.268652E-08
      194.00  0.634945E-14 0.100354E-10 0.683407E-11 0.426340E-08
      198.00  0.101729E-13 0.157063E-10 0.101585E-10 0.670646E-08
      202.00  0.161581E-13 0.243760E-10 0.149535E-10 0.104608E-07
      206.00  0.254530E-13 0.375284E-10 0.218042E-10 0.161856E-07
      210.00  0.397770E-13 0.573335E-10 0.315012E-10 0.248501E-07
      214.00  0.616893E-13 0.869452E-10 0.451031E-10 0.378701E-07
      218.00  0.949741E-13 0.130918E-09 0.640123E-10 0.573016E-07
      222.00  0.145192E-12 0.195792E-09 0.900690E-10 0.861114E-07
      226.00  0.220464E-12 0.290901E-09 0.125663E-09 0.128557E-06
      230.00  0.332590E-12 0.429500E-09 0.173868E-09 0.190713E-06
      234.00  0.498609E-12 0.630310E-09 0.238591E-09 0.281204E-06
      238.00  0.743013E-12 0.919645E-09 0.324749E-09 0.412214E-06
      242.00  0.110082E-11 0.133431E-08 0.438452E-09 0.600868E-06
      246.00  0.162186E-11 0.192557E-08 0.587203E-09 0.871133E-06
      250.00  0.237674E-11 0.276448E-08 0.780086E-09 0.125640E-05
      254.00  0.346499E-11 0.394915E-08 0.102794E-08 0.180298E-05
      258.00  0.502644E-11 0.561452E-08 0.134347E-08 0.257489E-05
      262.00  0.725665E-11 0.794542E-08 0.174128E-08 0.366022E-05
      266.00  0.104281E-10 0.111941E-07 0.223777E-08 0.517976E-05
      270.00  0.149190E-10 0.157039E-07 0.285082E-08 0.729862E-05
      274.00  0.212527E-10 0.219400E-07 0.359920E-08 0.102417E-04
      282.00  0.426041E-10 0.423255E-07 0.557486E-08 0.199293E-04
      290.00  0.841107E-10 0.804650E-07 0.828056E-08 0.382118E-04
      298.00  0.163724E-09 0.150918E-06 0.117169E-07 0.722730E-04
      306.00  0.314563E-09 0.279554E-06 0.156287E-07 0.134987E-03
      314.00  0.597165E-09 0.511950E-06 0.193112E-07 0.249226E-03
      322.00  0.112127E-08 0.927809E-06 0.214236E-07 0.455315E-03
      330.00  0.208447E-08 0.166565E-05 0.200271E-07 0.823896E-03
      338.00  0.384038E-08 0.296501E-05 0.134315E-07 0.147808E-02
      346.00  0.701901E-08 0.523844E-05 0.325118E-08 0.263155E-02
      354.00  0.127390E-07 0.919476E-05 0.282530E-08 0.465411E-02
      362.00  0.229825E-07 0.160502E-04 0.578247E-07 0.818492E-02
      370.00  0.412603E-07 0.278921E-04 0.293450E-06 0.143288E-01
      378.00  0.737975E-07 0.483104E-04 0.101822E-05 0.249986E-01
      386.00  0.131665E-06 0.835019E-04 0.294641E-05 0.435184E-01
      394.00  0.234648E-06 0.144226E-03 0.766777E-05 0.756967E-01
      402.00  0.418377E-06 0.249321E-03 0.186324E-04 0.131767E+00
      410.00  0.747670E-06 0.432141E-03 0.432174E-04 0.229955E+00
      418.00  0.134210E-05 0.752626E-03 0.970964E-04 0.403205E+00
      426.00  0.242629E-05 0.132058E-02 0.213618E-03 0.712193E+00
      434.00  0.443223E-05 0.234217E-02 0.464413E-03 0.127144E+01
      442.00  0.821670E-05 0.421702E-02 0.100618E-02 0.230405E+01
      450.00  0.155484E-04 0.775250E-02 0.219191E-02 0.426278E+01
      458.00  0.302778E-04 0.146710E-01 0.485196E-02 0.811783E+01
      466.00  0.614141E-04 0.289275E-01 0.110668E-01 0.161057E+02
      474.00  0.132269E-03 0.605801E-01 0.265536E-01 0.339352E+02
      482.00  0.312794E-03 0.139341E+00 0.693923E-01 0.785258E+02
      490.00  0.868751E-03 0.376511E+00 0.211467E+00 0.213447E+03
      498.00  0.336409E-02 0.141882E+01 0.892836E+00 0.809061E+03
      506.00  0.390497E-01 0.160310E+02 0.112368E+02 0.919436E+04
      514.00  0.730331E-01 0.291910E+02 0.226716E+02 0.168377E+05
      522.00  0.102626E-01 0.399461E+01 0.342131E+01 0.231711E+04
      530.00  0.503905E-02 0.191054E+01 0.179673E+01 0.111438E+04
      538.00  0.352871E-02 0.130349E+01 0.134071E+01 0.764459E+03
      546.00  0.292692E-02 0.105361E+01 0.118097E+01 0.621245E+03
      554.00  0.267881E-02 0.939887E+00 0.114429E+01 0.557142E+03
      562.00  0.261303E-02 0.893783E+00 0.117833E+01 0.532593E+03
      570.00  0.266397E-02 0.888494E+00 0.126485E+01 0.532182E+03
      578.00  0.280443E-02 0.912198E+00 0.139858E+01 0.549170E+03
      586.00  0.302429E-02 0.959549E+00 0.158062E+01 0.580585E+03
      596.00  0.340971E-02 0.104898E+01 0.188410E+01 0.638630E+03
      606.00  0.392798E-02 0.117204E+01 0.228795E+01 0.717896E+03
      616.00  0.459942E-02 0.133140E+01 0.281634E+01 0.820394E+03
      626.00  0.545360E-02 0.153190E+01 0.350167E+01 0.949492E+03
      636.00  0.652979E-02 0.178028E+01 0.438625E+01 0.110983E+04
      646.00  0.787837E-02 0.208530E+01 0.552460E+01 0.130736E+04
      656.00  0.956288E-02 0.245786E+01 0.698648E+01 0.154955E+04
      666.00  0.116629E-01 0.291141E+01 0.886086E+01 0.184556E+04
      676.00  0.142774E-01 0.346228E+01 0.112608E+02 0.220660E+04
      686.00  0.175293E-01 0.413028E+01 0.143298E+02 0.264629E+04
      696.00  0.215710E-01 0.493933E+01 0.182492E+02 0.318114E+04
      706.00  0.265911E-01 0.591825E+01 0.232485E+02 0.383111E+04
      716.00  0.328226E-01 0.710172E+01 0.296170E+02 0.462035E+04
      726.00  0.405531E-01 0.853139E+01 0.377191E+02 0.557793E+04
      736.00  0.501373E-01 0.102572E+02 0.480129E+02 0.673890E+04
      746.00  0.620123E-01 0.123392E+02 0.610738E+02 0.814542E+04
      756.00  0.767161E-01 0.148490E+02 0.776229E+02 0.984819E+04
      766.00  0.949104E-01 0.178726E+02 0.985633E+02 0.119081E+05
      776.00  0.117409E+00 0.215126E+02 0.125024E+03 0.143983E+05
      786.00  0.145211E+00 0.258920E+02 0.158417E+03 0.174064E+05
      796.00  0.179544E+00 0.311574E+02 0.200500E+03 0.210378E+05
      806.00  0.221912E+00 0.374840E+02 0.253467E+03 0.254182E+05
      816.00  0.274162E+00 0.450810E+02 0.320047E+03 0.306987E+05
      826.00  0.338555E+00 0.541977E+02 0.403634E+03 0.370598E+05
      836.00  0.417862E+00 0.651318E+02 0.508447E+03 0.447175E+05
      846.00  0.515478E+00 0.782380E+02 0.639723E+03 0.539305E+05
      856.00  0.635560E+00 0.939396E+02 0.803961E+03 0.650078E+05
      866.00  0.783195E+00 0.112741E+03 0.100922E+04 0.783193E+05
      876.00  0.964608E+00 0.135243E+03 0.126548E+04 0.943067E+05
      886.00  0.118742E+01 0.162163E+03 0.158510E+04 0.113498E+06
      896.00  0.146095E+01 0.194355E+03 0.198341E+04 0.136525E+06
      906.00  0.179662E+01 0.232838E+03 0.247934E+04 0.164143E+06
      916.00  0.220839E+01 0.278828E+03 0.309636E+04 0.197255E+06
      926.00  0.271336E+01 0.333775E+03 0.386347E+04 0.236941E+06
      936.00  0.333249E+01 0.399411E+03 0.481659E+04 0.284494E+06
      946.00  0.409142E+01 0.477803E+03 0.600014E+04 0.341461E+06
      956.00  0.502161E+01 0.571423E+03 0.746909E+04 0.409696E+06
      966.00  0.616163E+01 0.683225E+03 0.929151E+04 0.491421E+06
      976.00  0.755882E+01 0.816749E+03 0.115517E+05 0.589301E+06
      986.00  0.927136E+01 0.976234E+03 0.143541E+05 0.706537E+06
      996.00  0.113707E+02 0.116677E+04 0.178283E+05 0.846977E+06
     1006.00  0.139450E+02 0.139446E+04 0.221351E+05 0.101525E+07
     1016.00  0.171027E+02 0.166666E+04 0.274742E+05 0.121694E+07
     1026.00  0.209776E+02 0.199222E+04 0.340939E+05 0.145879E+07
     1036.00  0.257354E+02 0.238182E+04 0.423035E+05 0.174892E+07
     1046.00  0.315808E+02 0.284839E+04 0.524889E+05 0.209721E+07
     1056.00  0.387682E+02 0.340759E+04 0.651320E+05 0.251563E+07
     1066.00  0.476138E+02 0.407843E+04 0.808359E+05 0.301874E+07
     1076.00  0.585114E+02 0.488408E+04 0.100357E+06 0.362432E+07
     1086.00  0.719532E+02 0.585284E+04 0.124647E+06 0.435408E+07
     1096.00  0.885561E+02 0.701936E+04 0.154905E+06 0.523469E+07
     1106.00  0.109095E+03 0.842625E+04 0.192647E+06 0.629894E+07
     1116.00  0.134548E+03 0.101261E+05 0.239795E+06 0.758738E+07
     1126.00  0.166151E+03 0.121840E+05 0.298796E+06 0.915028E+07
     1136.00  0.205480E+03 0.146810E+05 0.372778E+06 0.110503E+08
     1146.00  0.254542E+03 0.177184E+05 0.465755E+06 0.133658E+08
     1156.00  0.315917E+03 0.214238E+05 0.582903E+06 0.161955E+08
     1166.00  0.392933E+03 0.259583E+05 0.730935E+06 0.196644E+08
     1176.00  0.489910E+03 0.315269E+05 0.918604E+06 0.239317E+08
     1186.00  0.612497E+03 0.383927E+05 0.115740E+07 0.292014E+08
     1196.00  0.768134E+03 0.468954E+05 0.146253E+07 0.357379E+08
     1206.00  0.966698E+03 0.574778E+05 0.185424E+07 0.438856E+08
     1216.00  0.122143E+04 0.707227E+05 0.235979E+07 0.540981E+08
     1226.00  0.155025E+04 0.874054E+05 0.301622E+07 0.669796E+08
     1236.00  0.197771E+04 0.108569E+06 0.387443E+07 0.833435E+08
     1246.00  0.253788E+04 0.135638E+06 0.500527E+07 0.104300E+09
     1256.00  0.327870E+04 0.170582E+06 0.650880E+07 0.131389E+09
     1266.00  0.426878E+04 0.216179E+06 0.852862E+07 0.166777E+09
     1276.00  0.560817E+04 0.276413E+06 0.112747E+08 0.213581E+09
     1286.00  0.744587E+04 0.357135E+06 0.150607E+08 0.276374E+09
     1296.00  0.100094E+05 0.467146E+06 0.203667E+08 0.362040E+09
     1306.00  0.136560E+05 0.620072E+06 0.279486E+08 0.481246E+09
     1316.00  0.189658E+05 0.837731E+06 0.390364E+08 0.651076E+09
     1326.00  0.269173E+05 0.115643E+07 0.557100E+08 0.899970E+09
     1336.00  0.392368E+05 0.163936E+07 0.816475E+08 0.127746E+10
     1346.00  0.591320E+05 0.240233E+07 0.123698E+09 0.187433E+10
     1351.10  0.740268E+05 0.296459E+07 0.155266E+09 0.231446E+10
     1351.35  0.748712E+05 0.299629E+07 0.157058E+09 0.233927E+10
     1351.60  0.757274E+05 0.302842E+07 0.158874E+09 0.236443E+10
     1351.85  0.765957E+05 0.306098E+07 0.160717E+09 0.238992E+10
     1352.10  0.774763E+05 0.309398E+07 0.162585E+09 0.241576E+10
     1352.35  0.783693E+05 0.312743E+07 0.164481E+09 0.244195E+10
     1352.60  0.792750E+05 0.316134E+07 0.166403E+09 0.246850E+10
     1352.85  0.801936E+05 0.319571E+07 0.168353E+09 0.249542E+10
     1353.11  0.811253E+05 0.323056E+07 0.170331E+09 0.252270E+10
     1353.36  0.820704E+05 0.326588E+07 0.172337E+09 0.255036E+10
     1353.61  0.830290E+05 0.330169E+07 0.174372E+09 0.257840E+10
     1353.86  0.840014E+05 0.333799E+07 0.176437E+09 0.260683E+10
     1354.11  0.849878E+05 0.337480E+07 0.178532E+09 0.263566E+10
     1354.36  0.859885E+05 0.341213E+07 0.180657E+09 0.266489E+10
     1354.61  0.870037E+05 0.344997E+07 0.182813E+09 0.269452E+10
     1354.86  0.880337E+05 0.348834E+07 0.185001E+09 0.272457E+10
     1355.11  0.890787E+05 0.352725E+07 0.187221E+09 0.275504E+10
     1355.36  0.901389E+05 0.356671E+07 0.189474E+09 0.278595E+10
     1355.61  0.912147E+05 0.360672E+07 0.191760E+09 0.281728E+10
     1355.86  0.923064E+05 0.364730E+07 0.194079E+09 0.284907E+10
     1356.00  0.929147E+05 0.366990E+07 0.195372E+09 0.286677E+10
     1356.11  0.934141E+05 0.368846E+07 0.196434E+09 0.288130E+10
     1356.36  0.945381E+05 0.373020E+07 0.198823E+09 0.291399E+10
     1356.61  0.956789E+05 0.377253E+07 0.201247E+09 0.294715E+10
     1356.86  0.968365E+05 0.381547E+07 0.203708E+09 0.298079E+10
     1357.12  0.980114E+05 0.385903E+07 0.206206E+09 0.301490E+10
     1357.37  0.992039E+05 0.390321E+07 0.208741E+09 0.304951E+10
     1357.62  0.100414E+06 0.394803E+07 0.211315E+09 0.308462E+10
     1357.87  0.101643E+06 0.399350E+07 0.213927E+09 0.312024E+10
     1358.12  0.102890E+06 0.403963E+07 0.216579E+09 0.315637E+10
     1358.37  0.104155E+06 0.408642E+07 0.219272E+09 0.319303E+10
     1358.62  0.105440E+06 0.413390E+07 0.222005E+09 0.323022E+10
     1358.87  0.106745E+06 0.418208E+07 0.224780E+09 0.326796E+10
     1359.12  0.108069E+06 0.423095E+07 0.227597E+09 0.330625E+10
     1359.37  0.109413E+06 0.428055E+07 0.230458E+09 0.334511E+10
     1359.62  0.110778E+06 0.433088E+07 0.233362E+09 0.338454E+10
     1359.87  0.112164E+06 0.438195E+07 0.236312E+09 0.342455E+10
     1360.12  0.113571E+06 0.443377E+07 0.239307E+09 0.346515E+10
     1360.37  0.115000E+06 0.448637E+07 0.242348E+09 0.350636E+10
     1360.62  0.116451E+06 0.453975E+07 0.245437E+09 0.354818E+10
     1360.87  0.117925E+06 0.459392E+07 0.248573E+09 0.359063E+10
     1361.13  0.119421E+06 0.464891E+07 0.251759E+09 0.363371E+10
     1361.38  0.120940E+06 0.470472E+07 0.254995E+09 0.367744E+10
     1361.63  0.122484E+06 0.476137E+07 0.258281E+09 0.372183E+10
     1361.88  0.124051E+06 0.481887E+07 0.261619E+09 0.376688E+10
     1362.13  0.125643E+06 0.487724E+07 0.265009E+09 0.381262E+10
     1362.38  0.127260E+06 0.493650E+07 0.268454E+09 0.385906E+10
     1362.63  0.128902E+06 0.499665E+07 0.271952E+09 0.390620E+10
     1362.88  0.130571E+06 0.505772E+07 0.275507E+09 0.395405E+10
     1363.13  0.132265E+06 0.511973E+07 0.279118E+09 0.400264E+10
     1363.38  0.133987E+06 0.518268E+07 0.282786E+09 0.405198E+10
     1363.63  0.135736E+06 0.524660E+07 0.286513E+09 0.410207E+10
     1363.88  0.137513E+06 0.531150E+07 0.290300E+09 0.415293E+10
     1364.13  0.139318E+06 0.537740E+07 0.294148E+09 0.420458E+10
     1364.38  0.141152E+06 0.544431E+07 0.298058E+09 0.425702E+10
     1364.63  0.143016E+06 0.551227E+07 0.302031E+09 0.431028E+10
     1364.88  0.144909E+06 0.558127E+07 0.306068E+09 0.436437E+10
     1365.14  0.146833E+06 0.565136E+07 0.310170E+09 0.441929E+10
     1365.39  0.148788E+06 0.572253E+07 0.314340E+09 0.447508E+10
     1365.64  0.150775E+06 0.579481E+07 0.318577E+09 0.453173E+10
     1365.89  0.152794E+06 0.586823E+07 0.322883E+09 0.458928E+10
     1366.00  0.153715E+06 0.590171E+07 0.324848E+09 0.461553E+10
     1366.14  0.154846E+06 0.594280E+07 0.327260E+09 0.464773E+10
     1366.39  0.156931E+06 0.601853E+07 0.331708E+09 0.470710E+10
     1366.64  0.159050E+06 0.609547E+07 0.336230E+09 0.476740E+10
     1366.89  0.161204E+06 0.617361E+07 0.340825E+09 0.482866E+10
     1367.14  0.163394E+06 0.625299E+07 0.345497E+09 0.489089E+10
     1367.39  0.165619E+06 0.633363E+07 0.350245E+09 0.495410E+10
     1367.64  0.167881E+06 0.641555E+07 0.355073E+09 0.501832E+10
     1367.89  0.170180E+06 0.649878E+07 0.359980E+09 0.508356E+10
     1368.14  0.172517E+06 0.658332E+07 0.364969E+09 0.514984E+10
     1368.39  0.174892E+06 0.666922E+07 0.370040E+09 0.521718E+10
     1368.64  0.177307E+06 0.675649E+07 0.375197E+09 0.528560E+10
     1368.89  0.179763E+06 0.684516E+07 0.380439E+09 0.535512E+10
     1369.15  0.182259E+06 0.693525E+07 0.385769E+09 0.542575E+10
     1369.40  0.184796E+06 0.702679E+07 0.391188E+09 0.549752E+10
     1369.65  0.187376E+06 0.711980E+07 0.396698E+09 0.557045E+10
     1369.90  0.189999E+06 0.721431E+07 0.402301E+09 0.564455E+10
     1370.15  0.192665E+06 0.731034E+07 0.407998E+09 0.571985E+10
     1370.40  0.195377E+06 0.740793E+07 0.413791E+09 0.579637E+10
     1370.65  0.198134E+06 0.750710E+07 0.419681E+09 0.587413E+10
     1370.90  0.200937E+06 0.760787E+07 0.425671E+09 0.595314E+10
     1371.15  0.203787E+06 0.771027E+07 0.431762E+09 0.603344E+10
     1371.40  0.206685E+06 0.781434E+07 0.437957E+09 0.611505E+10
     1371.65  0.209632E+06 0.792010E+07 0.444256E+09 0.619798E+10
     1371.90  0.212629E+06 0.802758E+07 0.450662E+09 0.628227E+10
     1372.15  0.215676E+06 0.813680E+07 0.457177E+09 0.636793E+10
     1372.40  0.218775E+06 0.824781E+07 0.463802E+09 0.645498E+10
     1372.65  0.221926E+06 0.836063E+07 0.470540E+09 0.654346E+10
     1372.90  0.225131E+06 0.847528E+07 0.477393E+09 0.663338E+10
     1373.16  0.228389E+06 0.859181E+07 0.484362E+09 0.672477E+10
     1373.41  0.231703E+06 0.871024E+07 0.491450E+09 0.681765E+10
     1373.66  0.235073E+06 0.883060E+07 0.498659E+09 0.691205E+10
     1373.91  0.238500E+06 0.895292E+07 0.505991E+09 0.700799E+10
     1374.16  0.241985E+06 0.907725E+07 0.513447E+09 0.710550E+10
     1374.41  0.245529E+06 0.920360E+07 0.521031E+09 0.720461E+10
     1374.66  0.249134E+06 0.933201E+07 0.528743E+09 0.730534E+10
     1374.91  0.252799E+06 0.946252E+07 0.536588E+09 0.740771E+10
     1375.16  0.256526E+06 0.959516E+07 0.544565E+09 0.751175E+10
     1375.41  0.260316E+06 0.972996E+07 0.552679E+09 0.761749E+10
     1375.66  0.264171E+06 0.986696E+07 0.560930E+09 0.772496E+10
     1375.91  0.268090E+06 0.100062E+08 0.569322E+09 0.783417E+10
     1376.00  0.269482E+06 0.100556E+08 0.572302E+09 0.787293E+10
     1376.16  0.272076E+06 0.101477E+08 0.577857E+09 0.794517E+10
     1376.41  0.276129E+06 0.102915E+08 0.586536E+09 0.805796E+10
     1376.66  0.280250E+06 0.104376E+08 0.595363E+09 0.817259E+10
     1376.91  0.284441E+06 0.105861E+08 0.604339E+09 0.828908E+10
     1377.17  0.288702E+06 0.107369E+08 0.613466E+09 0.840745E+10
     1377.42  0.293034E+06 0.108902E+08 0.622748E+09 0.852773E+10
     1377.67  0.297439E+06 0.110460E+08 0.632186E+09 0.864996E+10
     1377.92  0.301918E+06 0.112043E+08 0.641783E+09 0.877414E+10
     1378.17  0.306471E+06 0.113651E+08 0.651540E+09 0.890032E+10
     1378.42  0.311100E+06 0.115285E+08 0.661461E+09 0.902851E+10
     1378.67  0.315806E+06 0.116945E+08 0.671548E+09 0.915875E+10
     1378.92  0.320590E+06 0.118631E+08 0.681802E+09 0.929106E+10
     1379.17  0.325452E+06 0.120344E+08 0.692226E+09 0.942546E+10
     1379.42  0.330394E+06 0.122084E+08 0.702823E+09 0.956198E+10
     1379.67  0.335417E+06 0.123851E+08 0.713594E+09 0.970065E+10
     1379.92  0.340522E+06 0.125645E+08 0.724542E+09 0.984149E+10
     1380.17  0.345710E+06 0.127468E+08 0.735669E+09 0.998451E+10
     1380.42  0.350982E+06 0.129319E+08 0.746977E+09 0.101298E+11
     1380.67  0.356338E+06 0.131198E+08 0.758468E+09 0.102772E+11
     1380.92  0.361780E+06 0.133106E+08 0.770144E+09 0.104270E+11
     1381.18  0.367309E+06 0.135043E+08 0.782007E+09 0.105790E+11
     1381.43  0.372925E+06 0.137009E+08 0.794059E+09 0.107333E+11
     1381.68  0.378629E+06 0.139005E+08 0.806301E+09 0.108899E+11
     1381.93  0.384422E+06 0.141030E+08 0.818736E+09 0.110489E+11
     1382.18  0.390305E+06 0.143085E+08 0.831365E+09 0.112102E+11
     1382.43  0.396278E+06 0.145171E+08 0.844190E+09 0.113739E+11
     1382.68  0.402343E+06 0.147286E+08 0.857211E+09 0.115400E+11
     1382.93  0.408499E+06 0.149432E+08 0.870431E+09 0.117084E+11
     1383.18  0.414747E+06 0.151609E+08 0.883851E+09 0.118793E+11
     1383.43  0.421088E+06 0.153816E+08 0.897471E+09 0.120525E+11
     1383.68  0.427522E+06 0.156054E+08 0.911293E+09 0.122282E+11
     1383.93  0.434050E+06 0.158322E+08 0.925318E+09 0.124063E+11
     1384.18  0.440671E+06 0.160622E+08 0.939545E+09 0.125868E+11
     1384.43  0.447386E+06 0.162952E+08 0.953976E+09 0.127698E+11
     1384.68  0.454195E+06 0.165313E+08 0.968610E+09 0.129551E+11
     1384.93  0.461098E+06 0.167704E+08 0.983449E+09 0.131429E+11
     1385.19  0.468095E+06 0.170126E+08 0.998491E+09 0.133331E+11
     1385.44  0.475186E+06 0.172579E+08 0.101374E+10 0.135256E+11
     1385.69  0.482370E+06 0.175062E+08 0.102918E+10 0.137206E+11
     1385.94  0.489647E+06 0.177575E+08 0.104484E+10 0.139179E+11
     1386.00  0.491488E+06 0.178210E+08 0.104879E+10 0.139678E+11
     1386.19  0.497016E+06 0.180117E+08 0.106069E+10 0.141176E+11
     1386.44  0.504477E+06 0.182689E+08 0.107674E+10 0.143195E+11
     1386.69  0.512029E+06 0.185290E+08 0.109298E+10 0.145238E+11
     1386.94  0.519670E+06 0.187920E+08 0.110943E+10 0.147303E+11
     1387.19  0.527401E+06 0.190578E+08 0.112606E+10 0.149390E+11
     1387.44  0.535219E+06 0.193263E+08 0.114289E+10 0.151499E+11
     1387.69  0.543123E+06 0.195976E+08 0.115991E+10 0.153630E+11
     1387.94  0.551111E+06 0.198715E+08 0.117711E+10 0.155781E+11
     1388.19  0.559182E+06 0.201479E+08 0.119449E+10 0.157952E+11
     1388.44  0.567334E+06 0.204269E+08 0.121204E+10 0.160143E+11
     1388.69  0.575564E+06 0.207083E+08 0.122977E+10 0.162353E+11
     1388.94  0.583870E+06 0.209919E+08 0.124766E+10 0.164582E+11
     1389.20  0.592250E+06 0.212778E+08 0.126572E+10 0.166828E+11
     1389.45  0.600700E+06 0.215658E+08 0.128393E+10 0.169090E+11
     1389.70  0.609218E+06 0.218558E+08 0.130229E+10 0.171368E+11
     1389.95  0.617801E+06 0.221477E+08 0.132079E+10 0.173661E+11
     1390.20  0.626444E+06 0.224413E+08 0.133943E+10 0.175968E+11
     1390.45  0.635144E+06 0.227365E+08 0.135819E+10 0.178288E+11
     1390.70  0.643897E+06 0.230332E+08 0.137707E+10 0.180619E+11
     1390.95  0.652699E+06 0.233312E+08 0.139606E+10 0.182960E+11
     1391.20  0.661546E+06 0.236303E+08 0.141514E+10 0.185311E+11
     1391.45  0.670432E+06 0.239304E+08 0.143432E+10 0.187669E+11
     1391.70  0.679353E+06 0.242313E+08 0.145358E+10 0.190033E+11
     1391.95  0.688303E+06 0.245327E+08 0.147290E+10 0.192402E+11
     1392.20  0.697276E+06 0.248346E+08 0.149228E+10 0.194775E+11
     1392.45  0.706268E+06 0.251367E+08 0.151170E+10 0.197149E+11
     1392.70  0.715272E+06 0.254387E+08 0.153115E+10 0.199523E+11
     1392.95  0.724281E+06 0.257404E+08 0.155061E+10 0.201895E+11
     1393.21  0.733289E+06 0.260417E+08 0.157008E+10 0.204263E+11
     1393.46  0.742289E+06 0.263422E+08 0.158954E+10 0.206625E+11
     1393.71  0.751274E+06 0.266418E+08 0.160897E+10 0.208980E+11
     1393.96  0.760237E+06 0.269401E+08 0.162835E+10 0.211326E+11
     1394.21  0.769169E+06 0.272369E+08 0.164768E+10 0.213659E+11
     1394.46  0.778064E+06 0.275319E+08 0.166692E+10 0.215979E+11
     1394.71  0.786913E+06 0.278248E+08 0.168608E+10 0.218282E+11
     1394.96  0.795708E+06 0.281154E+08 0.170512E+10 0.220567E+11
     1395.21  0.804440E+06 0.284033E+08 0.172403E+10 0.222832E+11
     1395.46  0.813100E+06 0.286882E+08 0.174279E+10 0.225073E+11
     1395.71  0.821681E+06 0.289700E+08 0.176139E+10 0.227289E+11
     1395.96  0.830172E+06 0.292481E+08 0.177980E+10 0.229477E+11
     1396.00  0.831446E+06 0.292898E+08 0.178256E+10 0.229805E+11
     1396.21  0.838566E+06 0.295224E+08 0.179800E+10 0.231635E+11
     1396.46  0.846852E+06 0.297925E+08 0.181598E+10 0.233760E+11
     1396.71  0.855021E+06 0.300580E+08 0.183371E+10 0.235849E+11
     1396.96  0.863065E+06 0.303188E+08 0.185117E+10 0.237901E+11
     1397.22  0.870973E+06 0.305744E+08 0.186835E+10 0.239913E+11
     1397.47  0.878736E+06 0.308245E+08 0.188522E+10 0.241882E+11
     1397.72  0.886346E+06 0.310688E+08 0.190177E+10 0.243805E+11
     1397.97  0.893792E+06 0.313071E+08 0.191797E+10 0.245681E+11
     1398.22  0.901065E+06 0.315389E+08 0.193380E+10 0.247506E+11
     1398.47  0.908157E+06 0.317640E+08 0.194924E+10 0.249279E+11
     1398.72  0.915058E+06 0.319821E+08 0.196428E+10 0.250997E+11
     1398.97  0.921759E+06 0.321929E+08 0.197889E+10 0.252658E+11
     1399.22  0.928252E+06 0.323961E+08 0.199306E+10 0.254259E+11
     1399.47  0.934527E+06 0.325914E+08 0.200676E+10 0.255798E+11
     1399.72  0.940578E+06 0.327786E+08 0.201999E+10 0.257273E+11
     1399.97  0.946396E+06 0.329573E+08 0.203272E+10 0.258683E+11
     1400.22  0.951973E+06 0.331274E+08 0.204493E+10 0.260024E+11
     1400.47  0.957302E+06 0.332886E+08 0.205661E+10 0.261296E+11
     1400.72  0.962376E+06 0.334407E+08 0.206775E+10 0.262497E+11
     1400.97  0.967189E+06 0.335835E+08 0.207833E+10 0.263624E+11
     1401.23  0.971734E+06 0.337168E+08 0.208834E+10 0.264676E+11
     1401.48  0.976007E+06 0.338403E+08 0.209776E+10 0.265653E+11
     1401.73  0.980000E+06 0.339541E+08 0.210658E+10 0.266552E+11
     1401.98  0.983711E+06 0.340578E+08 0.211480E+10 0.267373E+11
     1402.23  0.987134E+06 0.341514E+08 0.212240E+10 0.268115E+11
     1402.48  0.990266E+06 0.342348E+08 0.212938E+10 0.268776E+11
     1402.73  0.993104E+06 0.343079E+08 0.213572E+10 0.269357E+11
     1402.98  0.995645E+06 0.343706E+08 0.214143E+10 0.269856E+11
     1403.23  0.997886E+06 0.344229E+08 0.214650E+10 0.270273E+11
     1403.48  0.999827E+06 0.344647E+08 0.215092E+10 0.270607E+11
     1403.73  0.100147E+07 0.344960E+08 0.215469E+10 0.270860E+11
     1403.98  0.100280E+07 0.345168E+08 0.215781E+10 0.271030E+11
     1404.23  0.100384E+07 0.345273E+08 0.216028E+10 0.271119E+11
     1404.48  0.100457E+07 0.345273E+08 0.216211E+10 0.271125E+11
     1404.73  0.100500E+07 0.345169E+08 0.216328E+10 0.271051E+11
     1404.98  0.100514E+07 0.344964E+08 0.216382E+10 0.270896E+11
     1405.24  0.100498E+07 0.344656E+08 0.216372E+10 0.270661E+11
     1405.49  0.100452E+07 0.344249E+08 0.216298E+10 0.270348E+11
     1405.74  0.100378E+07 0.343742E+08 0.216162E+10 0.269956E+11
     1405.99  0.100274E+07 0.343137E+08 0.215964E+10 0.269488E+11
     1406.00  0.100268E+07 0.343104E+08 0.215952E+10 0.269462E+11
     1406.24  0.100143E+07 0.342437E+08 0.215705E+10 0.268945E+11
     1406.49  0.999836E+06 0.341643E+08 0.215386E+10 0.268327E+11
     1406.74  0.997970E+06 0.340756E+08 0.215009E+10 0.267637E+11
     1406.99  0.995837E+06 0.339779E+08 0.214573E+10 0.266876E+11
     1407.24  0.993442E+06 0.338714E+08 0.214082E+10 0.266046E+11
     1407.49  0.990792E+06 0.337564E+08 0.213535E+10 0.265149E+11
     1407.74  0.987893E+06 0.336330E+08 0.212934E+10 0.264186E+11
     1407.99  0.984751E+06 0.335015E+08 0.212280E+10 0.263160E+11
     1408.24  0.981374E+06 0.333622E+08 0.211576E+10 0.262072E+11
     1408.49  0.977768E+06 0.332153E+08 0.210823E+10 0.260924E+11
     1408.74  0.973942E+06 0.330611E+08 0.210021E+10 0.259719E+11
     1408.99  0.969902E+06 0.328999E+08 0.209174E+10 0.258459E+11
     1409.25  0.965657E+06 0.327319E+08 0.208281E+10 0.257145E+11
     1409.50  0.961215E+06 0.325575E+08 0.207346E+10 0.255781E+11
     1409.75  0.956583E+06 0.323769E+08 0.206370E+10 0.254368E+11
     1410.00  0.951769E+06 0.321903E+08 0.205355E+10 0.252908E+11
     1410.25  0.946781E+06 0.319982E+08 0.204302E+10 0.251405E+11
     1410.50  0.941628E+06 0.318007E+08 0.203212E+10 0.249859E+11
     1410.75  0.936318E+06 0.315982E+08 0.202089E+10 0.248274E+11
     1411.00  0.930858E+06 0.313910E+08 0.200933E+10 0.246651E+11
     1411.25  0.925258E+06 0.311792E+08 0.199747E+10 0.244994E+11
     1411.50  0.919524E+06 0.309633E+08 0.198531E+10 0.243303E+11
     1411.75  0.913665E+06 0.307434E+08 0.197288E+10 0.241581E+11
     1412.00  0.907689E+06 0.305199E+08 0.196019E+10 0.239830E+11
     1412.25  0.901603E+06 0.302931E+08 0.194727E+10 0.238053E+11
     1412.50  0.895414E+06 0.300631E+08 0.193412E+10 0.236251E+11
     1412.75  0.889132E+06 0.298302E+08 0.192076E+10 0.234427E+11
     1413.00  0.882761E+06 0.295948E+08 0.190721E+10 0.232582E+11
     1413.26  0.876311E+06 0.293570E+08 0.189349E+10 0.230718E+11
     1413.51  0.869788E+06 0.291171E+08 0.187960E+10 0.228838E+11
     1413.76  0.863198E+06 0.288752E+08 0.186557E+10 0.226943E+11
     1414.01  0.856549E+06 0.286318E+08 0.185140E+10 0.225035E+11
     1414.26  0.849847E+06 0.283869E+08 0.183712E+10 0.223115E+11
     1414.51  0.843097E+06 0.281407E+08 0.182273E+10 0.221186E+11
     1414.76  0.836307E+06 0.278936E+08 0.180825E+10 0.219248E+11
     1415.01  0.829482E+06 0.276456E+08 0.179369E+10 0.217304E+11
     1415.26  0.822627E+06 0.273970E+08 0.177906E+10 0.215355E+11
     1415.51  0.815749E+06 0.271479E+08 0.176438E+10 0.213402E+11
     1415.76  0.808852E+06 0.268986E+08 0.174966E+10 0.211447E+11
     1416.00  0.802280E+06 0.266614E+08 0.173563E+10 0.209587E+11
     1416.01  0.801941E+06 0.266492E+08 0.173490E+10 0.209491E+11
     1416.26  0.795021E+06 0.263998E+08 0.172012E+10 0.207536E+11
     1416.51  0.788098E+06 0.261507E+08 0.170533E+10 0.205582E+11
     1416.76  0.781174E+06 0.259019E+08 0.169054E+10 0.203631E+11
     1417.01  0.774256E+06 0.256536E+08 0.167575E+10 0.201683E+11
     1417.27  0.767346E+06 0.254059E+08 0.166097E+10 0.199741E+11
     1417.52  0.760448E+06 0.251590E+08 0.164622E+10 0.197804E+11
     1417.77  0.753566E+06 0.249129E+08 0.163151E+10 0.195874E+11
     1418.02  0.746704E+06 0.246679E+08 0.161683E+10 0.193952E+11
     1418.27  0.739865E+06 0.244240E+08 0.160219E+10 0.192038E+11
     1418.52  0.733051E+06 0.241812E+08 0.158761E+10 0.190134E+11
     1418.77  0.726267E+06 0.239398E+08 0.157309E+10 0.188240E+11
     1419.02  0.719514E+06 0.236997E+08 0.155864E+10 0.186356E+11
     1419.27  0.712795E+06 0.234611E+08 0.154425E+10 0.184484E+11
     1419.52  0.706113E+06 0.232240E+08 0.152994E+10 0.182624E+11
     1419.77  0.699470E+06 0.229886E+08 0.151572E+10 0.180777E+11
     1420.02  0.692868E+06 0.227548E+08 0.150157E+10 0.178943E+11
     1420.27  0.686309E+06 0.225228E+08 0.148752E+10 0.177122E+11
     1420.52  0.679795E+06 0.222925E+08 0.147356E+10 0.175315E+11
     1420.77  0.673328E+06 0.220642E+08 0.145970E+10 0.173523E+11
     1421.02  0.666908E+06 0.218377E+08 0.144594E+10 0.171746E+11
     1421.28  0.660539E+06 0.216131E+08 0.143229E+10 0.169984E+11
     1421.53  0.654220E+06 0.213906E+08 0.141874E+10 0.168237E+11
     1421.78  0.647954E+06 0.211701E+08 0.140531E+10 0.166507E+11
     1422.03  0.641741E+06 0.209516E+08 0.139198E+10 0.164792E+11
     1422.28  0.635582E+06 0.207352E+08 0.137878E+10 0.163094E+11
     1422.53  0.629479E+06 0.205209E+08 0.136568E+10 0.161412E+11
     1422.78  0.623431E+06 0.203087E+08 0.135271E+10 0.159747E+11
     1423.03  0.617441E+06 0.200987E+08 0.133986E+10 0.158098E+11
     1423.28  0.611508E+06 0.198909E+08 0.132713E+10 0.156467E+11
     1423.53  0.605633E+06 0.196852E+08 0.131452E+10 0.154852E+11
     1423.78  0.599817E+06 0.194818E+08 0.130204E+10 0.153255E+11
     1424.03  0.594059E+06 0.192805E+08 0.128968E+10 0.151675E+11
     1424.28  0.588361E+06 0.190814E+08 0.127745E+10 0.150113E+11
     1424.53  0.582722E+06 0.188846E+08 0.126534E+10 0.148567E+11
     1424.78  0.577143E+06 0.186899E+08 0.125336E+10 0.147039E+11
     1425.03  0.571624E+06 0.184975E+08 0.124151E+10 0.145529E+11
     1425.29  0.566165E+06 0.183073E+08 0.122979E+10 0.144035E+11
     1425.54  0.560766E+06 0.181193E+08 0.121819E+10 0.142559E+11
     1425.79  0.555426E+06 0.179335E+08 0.120672E+10 0.141101E+11
     1426.00  0.550930E+06 0.177771E+08 0.119706E+10 0.139873E+11
     1426.04  0.550147E+06 0.177499E+08 0.119538E+10 0.139659E+11
     1426.29  0.544928E+06 0.175684E+08 0.118417E+10 0.138235E+11
     1426.54  0.539768E+06 0.173892E+08 0.117308E+10 0.136827E+11
     1426.79  0.534668E+06 0.172121E+08 0.116212E+10 0.135437E+11
     1427.04  0.529627E+06 0.170372E+08 0.115129E+10 0.134064E+11
     1427.29  0.524646E+06 0.168645E+08 0.114058E+10 0.132707E+11
     1427.54  0.519723E+06 0.166938E+08 0.113000E+10 0.131367E+11
     1427.79  0.514858E+06 0.165253E+08 0.111954E+10 0.130044E+11
     1428.04  0.510052E+06 0.163589E+08 0.110921E+10 0.128737E+11
     1428.29  0.505303E+06 0.161946E+08 0.109900E+10 0.127447E+11
     1428.54  0.500612E+06 0.160323E+08 0.108892E+10 0.126173E+11
     1428.79  0.495978E+06 0.158721E+08 0.107895E+10 0.124915E+11
     1429.04  0.491400E+06 0.157140E+08 0.106911E+10 0.123673E+11
     1429.30  0.486879E+06 0.155578E+08 0.105938E+10 0.122446E+11
     1429.55  0.482413E+06 0.154037E+08 0.104978E+10 0.121236E+11
     1429.80  0.478002E+06 0.152515E+08 0.104029E+10 0.120041E+11
     1430.05  0.473646E+06 0.151013E+08 0.103092E+10 0.118861E+11
     1430.30  0.469344E+06 0.149530E+08 0.102167E+10 0.117696E+11
     1430.55  0.465095E+06 0.148066E+08 0.101253E+10 0.116547E+11
     1430.80  0.460900E+06 0.146622E+08 0.100350E+10 0.115412E+11
     1431.05  0.456758E+06 0.145196E+08 0.994587E+09 0.114292E+11
     1431.30  0.452667E+06 0.143789E+08 0.985785E+09 0.113187E+11
     1431.55  0.448628E+06 0.142400E+08 0.977092E+09 0.112096E+11
     1431.80  0.444640E+06 0.141029E+08 0.968510E+09 0.111019E+11
     1432.05  0.440702E+06 0.139676E+08 0.960034E+09 0.109957E+11
     1432.30  0.436814E+06 0.138341E+08 0.951666E+09 0.108908E+11
     1432.55  0.432976E+06 0.137023E+08 0.943403E+09 0.107873E+11
     1432.80  0.429186E+06 0.135723E+08 0.935244E+09 0.106851E+11
     1433.05  0.425444E+06 0.134439E+08 0.927189E+09 0.105843E+11
     1433.31  0.421750E+06 0.133173E+08 0.919235E+09 0.104848E+11
     1433.56  0.418103E+06 0.131923E+08 0.911382E+09 0.103866E+11
     1433.81  0.414502E+06 0.130689E+08 0.903629E+09 0.102897E+11
     1434.06  0.410947E+06 0.129472E+08 0.895973E+09 0.101941E+11
     1434.31  0.407437E+06 0.128270E+08 0.888415E+09 0.100997E+11
     1434.56  0.403972E+06 0.127085E+08 0.880952E+09 0.100066E+11
     1434.81  0.400551E+06 0.125915E+08 0.873584E+09 0.991464E+10
     1435.06  0.397174E+06 0.124760E+08 0.866310E+09 0.982392E+10
     1435.31  0.393839E+06 0.123620E+08 0.859127E+09 0.973439E+10
     1435.56  0.390547E+06 0.122496E+08 0.852036E+09 0.964603E+10
     1435.81  0.387297E+06 0.121386E+08 0.845034E+09 0.955882E+10
     1436.00  0.384884E+06 0.120562E+08 0.839835E+09 0.949408E+10
     1436.06  0.384089E+06 0.120290E+08 0.838121E+09 0.947275E+10
     1436.31  0.380921E+06 0.119209E+08 0.831296E+09 0.938781E+10
     1436.56  0.377793E+06 0.118142E+08 0.824557E+09 0.930397E+10
     1436.81  0.374705E+06 0.117089E+08 0.817903E+09 0.922123E+10
     1437.06  0.371656E+06 0.116049E+08 0.811333E+09 0.913956E+10
     1437.32  0.368646E+06 0.115023E+08 0.804845E+09 0.905895E+10
     1437.57  0.365673E+06 0.114011E+08 0.798440E+09 0.897938E+10
     1437.82  0.362739E+06 0.113011E+08 0.792115E+09 0.890085E+10
     1438.07  0.359841E+06 0.112025E+08 0.785869E+09 0.882333E+10
     1438.32  0.356980E+06 0.111051E+08 0.779702E+09 0.874682E+10
     1438.57  0.354155E+06 0.110090E+08 0.773613E+09 0.867129E+10
     1438.82  0.351365E+06 0.109141E+08 0.767599E+09 0.859673E+10
     1439.07  0.348610E+06 0.108204E+08 0.761661E+09 0.852314E+10
     1439.32  0.345890E+06 0.107280E+08 0.755797E+09 0.845048E+10
     1439.57  0.343204E+06 0.106367E+08 0.750005E+09 0.837876E+10
     1439.82  0.340552E+06 0.105466E+08 0.744286E+09 0.830795E+10
     1440.07  0.337932E+06 0.104577E+08 0.738638E+09 0.823805E+10
     1440.32  0.335345E+06 0.103698E+08 0.733060E+09 0.816904E+10
     1440.57  0.332791E+06 0.102831E+08 0.727552E+09 0.810090E+10
     1440.82  0.330268E+06 0.101975E+08 0.722111E+09 0.803363E+10
     1441.07  0.327776E+06 0.101130E+08 0.716737E+09 0.796721E+10
     1441.33  0.325315E+06 0.100296E+08 0.711429E+09 0.790163E+10
     1441.58  0.322884E+06 0.994717E+07 0.706187E+09 0.783688E+10
     1441.83  0.320483E+06 0.986582E+07 0.701009E+09 0.777294E+10
     1442.08  0.318112E+06 0.978548E+07 0.695894E+09 0.770980E+10
     1442.33  0.315770E+06 0.970615E+07 0.690842E+09 0.764745E+10
     1442.58  0.313456E+06 0.962781E+07 0.685851E+09 0.758588E+10
     1442.83  0.311171E+06 0.955045E+07 0.680921E+09 0.752508E+10
     1443.08  0.308913E+06 0.947405E+07 0.676051E+09 0.746503E+10
     1443.33  0.306683E+06 0.939860E+07 0.671239E+09 0.740573E+10
     1443.58  0.304480E+06 0.932409E+07 0.666486E+09 0.734716E+10
     1443.83  0.302303E+06 0.925049E+07 0.661790E+09 0.728932E+10
     1444.08  0.300153E+06 0.917780E+07 0.657151E+09 0.723218E+10
     1444.33  0.298029E+06 0.910600E+07 0.652567E+09 0.717575E+10
     1444.58  0.295930E+06 0.903509E+07 0.648038E+09 0.712001E+10
     1444.83  0.293856E+06 0.896504E+07 0.643563E+09 0.706495E+10
     1445.08  0.291807E+06 0.889584E+07 0.639142E+09 0.701056E+10
     1445.34  0.289783E+06 0.882749E+07 0.634772E+09 0.695683E+10
     1445.59  0.287782E+06 0.875996E+07 0.630455E+09 0.690375E+10
     1445.84  0.285806E+06 0.869325E+07 0.626189E+09 0.685131E+10
     1446.00  0.284531E+06 0.865026E+07 0.623439E+09 0.681751E+10
     1446.09  0.283852E+06 0.862735E+07 0.621973E+09 0.679951E+10
     1446.34  0.281922E+06 0.856224E+07 0.617806E+09 0.674832E+10
     1446.59  0.280014E+06 0.849790E+07 0.613689E+09 0.669775E+10
     1446.84  0.278129E+06 0.843434E+07 0.609620E+09 0.664779E+10
     1447.09  0.276266E+06 0.837154E+07 0.605598E+09 0.659842E+10
     1447.34  0.274424E+06 0.830949E+07 0.601623E+09 0.654963E+10
     1447.59  0.272604E+06 0.824817E+07 0.597694E+09 0.650143E+10
     1447.84  0.270805E+06 0.818757E+07 0.593810E+09 0.645379E+10
     1448.09  0.269027E+06 0.812769E+07 0.589972E+09 0.640672E+10
     1448.34  0.267270E+06 0.806852E+07 0.586177E+09 0.636020E+10
     1448.59  0.265533E+06 0.801003E+07 0.582427E+09 0.631422E+10
     1448.84  0.263815E+06 0.795224E+07 0.578719E+09 0.626878E+10
     1449.09  0.262118E+06 0.789511E+07 0.575053E+09 0.622387E+10
     1449.35  0.260440E+06 0.783865E+07 0.571430E+09 0.617949E+10
     1449.60  0.258780E+06 0.778285E+07 0.567847E+09 0.613561E+10
     1449.85  0.257140E+06 0.772769E+07 0.564305E+09 0.609224E+10
     1450.10  0.255518E+06 0.767316E+07 0.560803E+09 0.604938E+10
     1450.35  0.253915E+06 0.761926E+07 0.557341E+09 0.600700E+10
     1450.60  0.252330E+06 0.756598E+07 0.553917E+09 0.596511E+10
     1450.85  0.250762E+06 0.751331E+07 0.550532E+09 0.592370E+10
     1451.10  0.249212E+06 0.746124E+07 0.547185E+09 0.588275E+10
     1456.00  0.222107E+06 0.655213E+07 0.488632E+09 0.516789E+10
     1466.00  0.181323E+06 0.518909E+07 0.400483E+09 0.409579E+10
     1476.00  0.153413E+06 0.425809E+07 0.340146E+09 0.336323E+10
     1486.00  0.133553E+06 0.359426E+07 0.297226E+09 0.284071E+10
     1496.00  0.118964E+06 0.310355E+07 0.265727E+09 0.245434E+10
     1506.00  0.107968E+06 0.272967E+07 0.242028E+09 0.215985E+10
     1516.00  0.995083E+05 0.243739E+07 0.223842E+09 0.192955E+10
     1526.00  0.928935E+05 0.220380E+07 0.209672E+09 0.174544E+10
     1536.00  0.876549E+05 0.201351E+07 0.198503E+09 0.159539E+10
     1546.00  0.834655E+05 0.185584E+07 0.189625E+09 0.147100E+10
     1556.00  0.800915E+05 0.172319E+07 0.182532E+09 0.136630E+10
     1566.00  0.773613E+05 0.161004E+07 0.176849E+09 0.127694E+10
     1576.00  0.751462E+05 0.151230E+07 0.172297E+09 0.119969E+10
     1586.00  0.733482E+05 0.142685E+07 0.168662E+09 0.113211E+10
     1596.00  0.718910E+05 0.135132E+07 0.165778E+09 0.107233E+10
     1606.00  0.707141E+05 0.128386E+07 0.163512E+09 0.101888E+10
     1616.00  0.697693E+05 0.122300E+07 0.161758E+09 0.970620E+09
     1626.00  0.690170E+05 0.116758E+07 0.160430E+09 0.926626E+09
     1636.00  0.684247E+05 0.111667E+07 0.159454E+09 0.886164E+09
     1646.00  0.679651E+05 0.106950E+07 0.158772E+09 0.848637E+09
     1656.00  0.676152E+05 0.102546E+07 0.158331E+09 0.813557E+09
     1666.00  0.673553E+05 0.984048E+06 0.158087E+09 0.780528E+09
     1676.00  0.671684E+05 0.944839E+06 0.158002E+09 0.749223E+09
     1686.00  0.670396E+05 0.907496E+06 0.158043E+09 0.719373E+09
     1696.00  0.669560E+05 0.871736E+06 0.158179E+09 0.690759E+09
     1706.00  0.669064E+05 0.837331E+06 0.158386E+09 0.663201E+09
     1716.00  0.668805E+05 0.804093E+06 0.158638E+09 0.636553E+09
     1726.00  0.668697E+05 0.771871E+06 0.158917E+09 0.610697E+09
     1736.00  0.668662E+05 0.740544E+06 0.159204E+09 0.585541E+09
     1746.00  0.668630E+05 0.710015E+06 0.159483E+09 0.561011E+09
     1756.00  0.668544E+05 0.680212E+06 0.159739E+09 0.537051E+09
     1766.00  0.668349E+05 0.651077E+06 0.159960E+09 0.513619E+09
     1776.00  0.668001E+05 0.622572E+06 0.160135E+09 0.490686E+09
     1786.00  0.667462E+05 0.594669E+06 0.160255E+09 0.468232E+09
     1796.00  0.666700E+05 0.567352E+06 0.160313E+09 0.446248E+09
     1806.00  0.665689E+05 0.540613E+06 0.160301E+09 0.424729E+09
     1816.00  0.664408E+05 0.514451E+06 0.160214E+09 0.403678E+09
     1826.00  0.662841E+05 0.488873E+06 0.160050E+09 0.383099E+09
     1836.00  0.660977E+05 0.463886E+06 0.159804E+09 0.363003E+09
     1846.00  0.658808E+05 0.439504E+06 0.159475E+09 0.343401E+09
     1856.00  0.656332E+05 0.415738E+06 0.159062E+09 0.324305E+09
     1866.00  0.653547E+05 0.392605E+06 0.158564E+09 0.305728E+09
     1876.00  0.650455E+05 0.370120E+06 0.157983E+09 0.287683E+09
     1886.00  0.647063E+05 0.348296E+06 0.157319E+09 0.270184E+09
     1896.00  0.643378E+05 0.327149E+06 0.156574E+09 0.253243E+09
     1906.00  0.639408E+05 0.306691E+06 0.155750E+09 0.236869E+09
     1916.00  0.635166E+05 0.286933E+06 0.154851E+09 0.221074E+09
     1926.00  0.630663E+05 0.267884E+06 0.153879E+09 0.205864E+09
     1936.00  0.625913E+05 0.249552E+06 0.152837E+09 0.191246E+09
     1946.00  0.620930E+05 0.231942E+06 0.151730E+09 0.177224E+09
     1956.00  0.615727E+05 0.215057E+06 0.150560E+09 0.163800E+09
     1966.00  0.610321E+05 0.198898E+06 0.149331E+09 0.150976E+09
     1976.00  0.604726E+05 0.183463E+06 0.148048E+09 0.138750E+09
     1986.00  0.598956E+05 0.168751E+06 0.146714E+09 0.127119E+09
     1996.00  0.593028E+05 0.154755E+06 0.145332E+09 0.116080E+09
     2006.00  0.586956E+05 0.141470E+06 0.143908E+09 0.105625E+09
     2016.00  0.580754E+05 0.128887E+06 0.142444E+09 0.957495E+08
     2026.00  0.574436E+05 0.116996E+06 0.140944E+09 0.864432E+08
     2036.00  0.568017E+05 0.105786E+06 0.139412E+09 0.776970E+08
     2046.00  0.561508E+05 0.952450E+05 0.137851E+09 0.695003E+08
     2056.00  0.554922E+05 0.853592E+05 0.136264E+09 0.618416E+08
     2066.00  0.548271E+05 0.761142E+05 0.134655E+09 0.547085E+08
     2076.00  0.541566E+05 0.674948E+05 0.133026E+09 0.480881E+08
     2086.00  0.534816E+05 0.594853E+05 0.131381E+09 0.419668E+08
     2096.00  0.528034E+05 0.520691E+05 0.129721E+09 0.363306E+08
     2106.00  0.521226E+05 0.452295E+05 0.128050E+09 0.311652E+08
     2116.00  0.514403E+05 0.389493E+05 0.126370E+09 0.264560E+08
     2126.00  0.507571E+05 0.332111E+05 0.124683E+09 0.221882E+08
     2136.00  0.500739E+05 0.279973E+05 0.122991E+09 0.183467E+08
     2146.00  0.493914E+05 0.232902E+05 0.121295E+09 0.149166E+08
     2156.00  0.487100E+05 0.190723E+05 0.119599E+09 0.118829E+08
     2166.00  0.480305E+05 0.153259E+05 0.117903E+09 0.923062E+07
     2176.00  0.473533E+05 0.120336E+05 0.116209E+09 0.694492E+07
     2186.00  0.466790E+05 0.917812E+04 0.114518E+09 0.501110E+07
     2196.00  0.460079E+05 0.674232E+04 0.112831E+09 0.341465E+07
     2206.00  0.453405E+05 0.470938E+04 0.111151E+09 0.214123E+07
     2216.00  0.446771E+05 0.306270E+04 0.109478E+09 0.117678E+07
     2226.00  0.440181E+05 0.178601E+04 0.107812E+09 0.507444E+06
     2236.00  0.433637E+05 0.863333E+03 0.106155E+09 0.119679E+06
     2246.00  0.427143E+05 0.279046E+03 0.104508E+09 0.208786E+03
     2256.00  0.420700E+05 0.178626E+02 0.102872E+09 0.136063E+06
     2266.00  0.414311E+05 0.648592E+02 0.101246E+09 0.514577E+06
     2276.00  0.407978E+05 0.405479E+03 0.996327E+08 0.112340E+07
     2286.00  0.401702E+05 0.102554E+04 0.980315E+08 0.195051E+07
     2296.00  0.395485E+05 0.191123E+04 0.964431E+08 0.298420E+07
     2306.00  0.389328E+05 0.304912E+04 0.948681E+08 0.421309E+07
     2316.00  0.383232E+05 0.442616E+04 0.933070E+08 0.562613E+07
     2326.00  0.377198E+05 0.602968E+04 0.917600E+08 0.721258E+07
     2336.00  0.371228E+05 0.784737E+04 0.902276E+08 0.896205E+07
     2346.00  0.365321E+05 0.986729E+04 0.887100E+08 0.108644E+08
     2356.00  0.359479E+05 0.120779E+05 0.872076E+08 0.129100E+08
     2366.00  0.353701E+05 0.144680E+05 0.857205E+08 0.150892E+08
     2376.00  0.347989E+05 0.170267E+05 0.842489E+08 0.173930E+08
     2386.00  0.342342E+05 0.197435E+05 0.827930E+08 0.198125E+08
     2396.00  0.336760E+05 0.226083E+05 0.813531E+08 0.223391E+08
     2406.00  0.331245E+05 0.256112E+05 0.799291E+08 0.249647E+08
     2416.00  0.325795E+05 0.287427E+05 0.785212E+08 0.276811E+08
     2426.00  0.320410E+05 0.319937E+05 0.771296E+08 0.304808E+08
     2436.00  0.315092E+05 0.353553E+05 0.757542E+08 0.333562E+08
     2446.00  0.309838E+05 0.388189E+05 0.743952E+08 0.363004E+08
     2456.00  0.304651E+05 0.423764E+05 0.730525E+08 0.393062E+08
     2466.00  0.299528E+05 0.460196E+05 0.717263E+08 0.423672E+08
     2476.00  0.294470E+05 0.497410E+05 0.704164E+08 0.454770E+08
     2486.00  0.289476E+05 0.535331E+05 0.691230E+08 0.486293E+08
     2496.00  0.284547E+05 0.573887E+05 0.678459E+08 0.518182E+08
     2506.00  0.279682E+05 0.613010E+05 0.665853E+08 0.550382E+08
     2516.00  0.274880E+05 0.652634E+05 0.653409E+08 0.582837E+08
     2526.00  0.270141E+05 0.692694E+05 0.641129E+08 0.615494E+08
     2536.00  0.265464E+05 0.733130E+05 0.629011E+08 0.648304E+08
     2546.00  0.260850E+05 0.773883E+05 0.617055E+08 0.681219E+08
     2556.00  0.256298E+05 0.814895E+05 0.605261E+08 0.714193E+08
     2566.00  0.251807E+05 0.856113E+05 0.593628E+08 0.747180E+08
     2576.00  0.247377E+05 0.897484E+05 0.582156E+08 0.780140E+08
     2586.00  0.243008E+05 0.938958E+05 0.570843E+08 0.813031E+08
     2596.00  0.238699E+05 0.980486E+05 0.559688E+08 0.845816E+08
     2606.00  0.234449E+05 0.102202E+06 0.548692E+08 0.878457E+08
     2616.00  0.230258E+05 0.106352E+06 0.537853E+08 0.910919E+08
     2626.00  0.226126E+05 0.110495E+06 0.527170E+08 0.943169E+08
     2636.00  0.222052E+05 0.114625E+06 0.516642E+08 0.975175E+08
     2646.00  0.218035E+05 0.118740E+06 0.506269E+08 0.100691E+09
     2656.00  0.214075E+05 0.122835E+06 0.496049E+08 0.103834E+09
     2666.00  0.210172E+05 0.126908E+06 0.485981E+08 0.106944E+09
     2676.00  0.206325E+05 0.130954E+06 0.476065E+08 0.110018E+09
     2686.00  0.202534E+05 0.134971E+06 0.466298E+08 0.113055E+09
     2696.00  0.198797E+05 0.138955E+06 0.456681E+08 0.116051E+09
     2706.00  0.195115E+05 0.142904E+06 0.447212E+08 0.119005E+09
     2716.00  0.191488E+05 0.146815E+06 0.437890E+08 0.121915E+09
     2726.00  0.187913E+05 0.150685E+06 0.428713E+08 0.124778E+09
     2736.00  0.184391E+05 0.154511E+06 0.419680E+08 0.127593E+09
     2746.00  0.180922E+05 0.158292E+06 0.410790E+08 0.130358E+09
     2756.00  0.177504E+05 0.162025E+06 0.402042E+08 0.133072E+09
     2766.00  0.174138E+05 0.165708E+06 0.393435E+08 0.135732E+09
     2776.00  0.170823E+05 0.169340E+06 0.384967E+08 0.138339E+09
     2786.00  0.167558E+05 0.172917E+06 0.376637E+08 0.140890E+09
     2796.00  0.164342E+05 0.176439E+06 0.368444E+08 0.143385E+09
     2806.00  0.161176E+05 0.179904E+06 0.360386E+08 0.145822E+09
     2816.00  0.158059E+05 0.183310E+06 0.352463E+08 0.148201E+09
     2826.00  0.154989E+05 0.186656E+06 0.344672E+08 0.150520E+09
     2836.00  0.151967E+05 0.189941E+06 0.337013E+08 0.152779E+09
     2846.00  0.148993E+05 0.193163E+06 0.329483E+08 0.154977E+09
     2856.00  0.146065E+05 0.196321E+06 0.322082E+08 0.157113E+09
     2866.00  0.143183E+05 0.199414E+06 0.314809E+08 0.159188E+09
     2876.00  0.140346E+05 0.202442E+06 0.307662E+08 0.161200E+09
     2886.00  0.137555E+05 0.205402E+06 0.300639E+08 0.163148E+09
     2896.00  0.134808E+05 0.208296E+06 0.293740E+08 0.165034E+09
     2906.00  0.132105E+05 0.211121E+06 0.286962E+08 0.166856E+09
     2916.00  0.129445E+05 0.213877E+06 0.280306E+08 0.168615E+09
     2926.00  0.126829E+05 0.216565E+06 0.273768E+08 0.170309E+09
     2936.00  0.124255E+05 0.219182E+06 0.267348E+08 0.171940E+09
     2946.00  0.121723E+05 0.221729E+06 0.261045E+08 0.173507E+09
     2956.00  0.119233E+05 0.224206E+06 0.254857E+08 0.175011E+09
     2966.00  0.116784E+05 0.226612E+06 0.248783E+08 0.176450E+09
     2976.00  0.114375E+05 0.228947E+06 0.242821E+08 0.177826E+09
     2986.00  0.112007E+05 0.231210E+06 0.236969E+08 0.179139E+09
     2996.00  0.109678E+05 0.233403E+06 0.231228E+08 0.180388E+09
     3006.00  0.107388E+05 0.235524E+06 0.225595E+08 0.181575E+09
     3016.00  0.105136E+05 0.237573E+06 0.220068E+08 0.182699E+09
     3026.00  0.102923E+05 0.239552E+06 0.214648E+08 0.183761E+09
     3036.00  0.100748E+05 0.241459E+06 0.209331E+08 0.184762E+09
     3046.00  0.986094E+04 0.243296E+06 0.204117E+08 0.185701E+09
     3056.00  0.965078E+04 0.245061E+06 0.199005E+08 0.186580E+09
     3066.00  0.944424E+04 0.246756E+06 0.193992E+08 0.187399E+09
     3076.00  0.924129E+04 0.248381E+06 0.189079E+08 0.188158E+09
     3086.00  0.904187E+04 0.249936E+06 0.184263E+08 0.188857E+09
     3096.00  0.884593E+04 0.251421E+06 0.179543E+08 0.189499E+09
     3106.00  0.865343E+04 0.252837E+06 0.174917E+08 0.190082E+09
     3116.00  0.846433E+04 0.254185E+06 0.170385E+08 0.190609E+09
     3126.00  0.827858E+04 0.255464E+06 0.165945E+08 0.191078E+09
     3136.00  0.809613E+04 0.256675E+06 0.161596E+08 0.191492E+09
     3146.00  0.791695E+04 0.257819E+06 0.157336E+08 0.191852E+09
     3156.00  0.774098E+04 0.258896E+06 0.153164E+08 0.192156E+09
     3166.00  0.756819E+04 0.259907E+06 0.149079E+08 0.192407E+09
     3176.00  0.739853E+04 0.260853E+06 0.145080E+08 0.192606E+09
     3186.00  0.723196E+04 0.261734E+06 0.141165E+08 0.192752E+09
     3196.00  0.706843E+04 0.262550E+06 0.137333E+08 0.192848E+09
     3206.00  0.690790E+04 0.263303E+06 0.133583E+08 0.192893E+09
     3216.00  0.675034E+04 0.263993E+06 0.129913E+08 0.192888E+09
     3226.00  0.659569E+04 0.264621E+06 0.126323E+08 0.192835E+09
     3236.00  0.644393E+04 0.265187E+06 0.122810E+08 0.192734E+09
     3246.00  0.629499E+04 0.265693E+06 0.119374E+08 0.192586E+09
     3256.00  0.614886E+04 0.266139E+06 0.116014E+08 0.192392E+09
     3266.00  0.600548E+04 0.266526E+06 0.112728E+08 0.192153E+09
     3276.00  0.586482E+04 0.266854E+06 0.109516E+08 0.191870E+09
     3286.00  0.572683E+04 0.267125E+06 0.106375E+08 0.191543E+09
     3296.00  0.559149E+04 0.267339E+06 0.103305E+08 0.191174E+09
     3306.00  0.545874E+04 0.267498E+06 0.100305E+08 0.190763E+09
     3316.00  0.532856E+04 0.267601E+06 0.973735E+07 0.190312E+09
     3326.00  0.520090E+04 0.267651E+06 0.945092E+07 0.189821E+09
     3336.00  0.507573E+04 0.267647E+06 0.917112E+07 0.189291E+09
     3346.00  0.495300E+04 0.267590E+06 0.889783E+07 0.188723E+09
     3356.00  0.483269E+04 0.267482E+06 0.863093E+07 0.188118E+09
     3366.00  0.471475E+04 0.267324E+06 0.837032E+07 0.187477E+09
     3376.00  0.459915E+04 0.267115E+06 0.811589E+07 0.186801E+09
     3386.00  0.448585E+04 0.266858E+06 0.786752E+07 0.186091E+09
     3396.00  0.437482E+04 0.266553E+06 0.762513E+07 0.185347E+09
     3406.00  0.426602E+04 0.266201E+06 0.738859E+07 0.184570E+09
     3416.00  0.415941E+04 0.265802E+06 0.715780E+07 0.183762E+09
     3426.00  0.405497E+04 0.265358E+06 0.693266E+07 0.182924E+09
     3436.00  0.395266E+04 0.264870E+06 0.671307E+07 0.182055E+09
     3446.00  0.385244E+04 0.264339E+06 0.649892E+07 0.181158E+09
     3456.00  0.375429E+04 0.263764E+06 0.629012E+07 0.180232E+09
     3466.00  0.365816E+04 0.263148E+06 0.608657E+07 0.179280E+09
     3476.00  0.356403E+04 0.262492E+06 0.588816E+07 0.178301E+09
     3486.00  0.347186E+04 0.261795E+06 0.569480E+07 0.177296E+09
     3496.00  0.338163E+04 0.261059E+06 0.550640E+07 0.176267E+09
     3506.00  0.329329E+04 0.260285E+06 0.532286E+07 0.175214E+09
     3516.00  0.320682E+04 0.259474E+06 0.514408E+07 0.174138E+09
     3526.00  0.312219E+04 0.258626E+06 0.496998E+07 0.173040E+09
     3536.00  0.303936E+04 0.257743E+06 0.480047E+07 0.171920E+09
     3546.00  0.295831E+04 0.256825E+06 0.463545E+07 0.170780E+09
     3556.00  0.287901E+04 0.255874E+06 0.447483E+07 0.169620E+09
     3566.00  0.280142E+04 0.254889E+06 0.431854E+07 0.168441E+09
     3576.00  0.272553E+04 0.253873E+06 0.416647E+07 0.167244E+09
     3586.00  0.265129E+04 0.252825E+06 0.401855E+07 0.166030E+09
     3596.00  0.257868E+04 0.251747E+06 0.387470E+07 0.164799E+09
     3606.00  0.250768E+04 0.250640E+06 0.373483E+07 0.163552E+09
     3616.00  0.243826E+04 0.249504E+06 0.359885E+07 0.162290E+09
     3626.00  0.237038E+04 0.248340E+06 0.346669E+07 0.161014E+09
     3636.00  0.230402E+04 0.247149E+06 0.333827E+07 0.159724E+09
     3646.00  0.223916E+04 0.245931E+06 0.321351E+07 0.158421E+09
     3656.00  0.217576E+04 0.244689E+06 0.309233E+07 0.157105E+09
     3666.00  0.211381E+04 0.243422E+06 0.297466E+07 0.155778E+09
     3676.00  0.205327E+04 0.242131E+06 0.286042E+07 0.154440E+09
     3686.00  0.199413E+04 0.240816E+06 0.274954E+07 0.153092E+09
     3696.00  0.193635E+04 0.239480E+06 0.264194E+07 0.151734E+09
     3706.00  0.187991E+04 0.238123E+06 0.253756E+07 0.150367E+09
     3716.00  0.182479E+04 0.236744E+06 0.243632E+07 0.148992E+09
     3726.00  0.177097E+04 0.235346E+06 0.233816E+07 0.147610E+09
     3736.00  0.171841E+04 0.233928E+06 0.224300E+07 0.146220E+09
     3746.00  0.166710E+04 0.232492E+06 0.215077E+07 0.144823E+09
     3756.00  0.161701E+04 0.231039E+06 0.206142E+07 0.143421E+09
     3766.00  0.156812E+04 0.229568E+06 0.197488E+07 0.142013E+09
     3776.00  0.152041E+04 0.228081E+06 0.189107E+07 0.140601E+09
     3786.00  0.147386E+04 0.226578E+06 0.180995E+07 0.139184E+09
     3796.00  0.142844E+04 0.225060E+06 0.173144E+07 0.137764E+09
     3806.00  0.138413E+04 0.223528E+06 0.165549E+07 0.136340E+09
     3816.00  0.134092E+04 0.221982E+06 0.158203E+07 0.134914E+09
     3826.00  0.129877E+04 0.220424E+06 0.151101E+07 0.133486E+09
     3836.00  0.125767E+04 0.218853E+06 0.144237E+07 0.132056E+09
     3846.00  0.121761E+04 0.217270E+06 0.137605E+07 0.130625E+09
     3856.00  0.117855E+04 0.215676E+06 0.131199E+07 0.129193E+09
     3866.00  0.114048E+04 0.214072E+06 0.125015E+07 0.127761E+09
     3876.00  0.110338E+04 0.212458E+06 0.119046E+07 0.126330E+09
     3886.00  0.106724E+04 0.210834E+06 0.113287E+07 0.124899E+09
     3896.00  0.103202E+04 0.209202E+06 0.107733E+07 0.123469E+09
     3906.00  0.997722E+03 0.207562E+06 0.102379E+07 0.122041E+09
     3916.00  0.964316E+03 0.205915E+06 0.972201E+06 0.120614E+09
     3926.00  0.931788E+03 0.204260E+06 0.922509E+06 0.119190E+09
     3936.00  0.900119E+03 0.202599E+06 0.874667E+06 0.117769E+09
     3946.00  0.869292E+03 0.200932E+06 0.828628E+06 0.116350E+09
     3956.00  0.839290E+03 0.199259E+06 0.784344E+06 0.114935E+09
     3966.00  0.810096E+03 0.197582E+06 0.741770E+06 0.113524E+09
     3976.00  0.781693E+03 0.195900E+06 0.700861E+06 0.112118E+09
     3986.00  0.754064E+03 0.194215E+06 0.661572E+06 0.110715E+09
     3996.00  0.727195E+03 0.192526E+06 0.623859E+06 0.109318E+09
     4006.00  0.701068E+03 0.190834E+06 0.587681E+06 0.107925E+09
     4016.00  0.675669E+03 0.189140E+06 0.552996E+06 0.106538E+09
     4026.00  0.650981E+03 0.187443E+06 0.519762E+06 0.105157E+09
     4036.00  0.626990E+03 0.185746E+06 0.487940E+06 0.103782E+09
     4046.00  0.603681E+03 0.184047E+06 0.457490E+06 0.102413E+09
     4056.00  0.581039E+03 0.182347E+06 0.428373E+06 0.101051E+09
     4066.00  0.559049E+03 0.180648E+06 0.400552E+06 0.996953E+08
     4076.00  0.537698E+03 0.178948E+06 0.373990E+06 0.983470E+08
     4086.00  0.516972E+03 0.177249E+06 0.348651E+06 0.970060E+08
     4096.00  0.496856E+03 0.175551E+06 0.324498E+06 0.956726E+08
     4106.00  0.477337E+03 0.173854E+06 0.301498E+06 0.943469E+08
     4116.00  0.458403E+03 0.172159E+06 0.279615E+06 0.930293E+08
     4126.00  0.440040E+03 0.170467E+06 0.258818E+06 0.917199E+08
     4136.00  0.422234E+03 0.168776E+06 0.239072E+06 0.904190E+08
     4146.00  0.404975E+03 0.167089E+06 0.220347E+06 0.891267E+08
     4156.00  0.388249E+03 0.165404E+06 0.202611E+06 0.878431E+08
     4166.00  0.372044E+03 0.163723E+06 0.185832E+06 0.865686E+08
     4176.00  0.356348E+03 0.162046E+06 0.169982E+06 0.853032E+08
     4186.00  0.341149E+03 0.160373E+06 0.155031E+06 0.840472E+08
     4196.00  0.326437E+03 0.158705E+06 0.140951E+06 0.828006E+08
     4206.00  0.312199E+03 0.157041E+06 0.127713E+06 0.815636E+08
     4216.00  0.298424E+03 0.155382E+06 0.115289E+06 0.803364E+08
     4226.00  0.285101E+03 0.153729E+06 0.103654E+06 0.791190E+08
     4236.00  0.272221E+03 0.152081E+06 0.927810E+05 0.779117E+08
     4246.00  0.259771E+03 0.150439E+06 0.826443E+05 0.767145E+08
     4256.00  0.247742E+03 0.148803E+06 0.732191E+05 0.755275E+08
     4266.00  0.236124E+03 0.147173E+06 0.644809E+05 0.743508E+08
     4276.00  0.224907E+03 0.145550E+06 0.564059E+05 0.731846E+08
     4286.00  0.214080E+03 0.143933E+06 0.489708E+05 0.720290E+08
     4296.00  0.203634E+03 0.142324E+06 0.421530E+05 0.708839E+08
     4306.00  0.193561E+03 0.140722E+06 0.359302E+05 0.697496E+08
     4316.00  0.183849E+03 0.139128E+06 0.302807E+05 0.686260E+08
     4326.00  0.174491E+03 0.137541E+06 0.251835E+05 0.675133E+08
     4336.00  0.165478E+03 0.135962E+06 0.206180E+05 0.664115E+08
     4346.00  0.156800E+03 0.134391E+06 0.165639E+05 0.653207E+08
     4356.00  0.148450E+03 0.132828E+06 0.130017E+05 0.642409E+08
     4366.00  0.140418E+03 0.131274E+06 0.991233E+04 0.631721E+08
     4376.00  0.132697E+03 0.129729E+06 0.727708E+04 0.621145E+08
     4386.00  0.125278E+03 0.128192E+06 0.507779E+04 0.610680E+08
     4396.00  0.118153E+03 0.126664E+06 0.329674E+04 0.600327E+08
     4406.00  0.111315E+03 0.125145E+06 0.191669E+04 0.590085E+08
     4416.00  0.104756E+03 0.123636E+06 0.920828E+03 0.579956E+08
     4426.00  0.984683E+02 0.122136E+06 0.292780E+03 0.569940E+08
     4436.00  0.924449E+02 0.120645E+06 0.166078E+02 0.560036E+08
     4446.00  0.866786E+02 0.119164E+06 0.767944E+02 0.550245E+08
     4456.00  0.811621E+02 0.117693E+06 0.458237E+03 0.540567E+08
     4466.00  0.758888E+02 0.116232E+06 0.114624E+04 0.531002E+08
     4476.00  0.708516E+02 0.114780E+06 0.212651E+04 0.521549E+08
     4486.00  0.660442E+02 0.113339E+06 0.338514E+04 0.512209E+08
     4511.00  0.549879E+02 0.109782E+06 0.766174E+04 0.489352E+08
     4536.00  0.452290E+02 0.106289E+06 0.133935E+05 0.467196E+08
     4561.00  0.366745E+02 0.102863E+06 0.203935E+05 0.445738E+08
     4586.00  0.292365E+02 0.995055E+05 0.284878E+05 0.424972E+08
     4611.00  0.228318E+02 0.962163E+05 0.375154E+05 0.404892E+08
     4636.00  0.173814E+02 0.929965E+05 0.473274E+05 0.385491E+08
     4661.00  0.128107E+02 0.898468E+05 0.577860E+05 0.366761E+08
     4686.00  0.904926E+01 0.867675E+05 0.687644E+05 0.348692E+08
     4711.00  0.603050E+01 0.837590E+05 0.801460E+05 0.331275E+08
     4736.00  0.369161E+01 0.808214E+05 0.918238E+05 0.314498E+08
     4761.00  0.197339E+01 0.779547E+05 0.103700E+06 0.298352E+08
     4786.00  0.820112E+00 0.751589E+05 0.115686E+06 0.282823E+08
     4811.00  0.179331E+00 0.724338E+05 0.127699E+06 0.267900E+08
     4836.00  0.176053E-02 0.697791E+05 0.139667E+06 0.253570E+08
     4861.00  0.241130E+00 0.671944E+05 0.151524E+06 0.239820E+08
     4886.00  0.854044E+00 0.646792E+05 0.163209E+06 0.226635E+08
     4911.00  0.179985E+01 0.622330E+05 0.174670E+06 0.214003E+08
     4936.00  0.304053E+01 0.598551E+05 0.185860E+06 0.201910E+08
     4961.00  0.454053E+01 0.575448E+05 0.196736E+06 0.190341E+08
     4986.00  0.626670E+01 0.553013E+05 0.207262E+06 0.179282E+08
     5011.00  0.818815E+01 0.531239E+05 0.217406E+06 0.168719E+08
     5036.00  0.102761E+02 0.510116E+05 0.227142E+06 0.158637E+08
     5061.00  0.125039E+02 0.489635E+05 0.236445E+06 0.149022E+08
     5086.00  0.148467E+02 0.469785E+05 0.245298E+06 0.139859E+08
     5111.00  0.172817E+02 0.450558E+05 0.253683E+06 0.131135E+08
     5136.00  0.197876E+02 0.431941E+05 0.261589E+06 0.122835E+08
     5161.00  0.223450E+02 0.413925E+05 0.269007E+06 0.114944E+08
     5186.00  0.249358E+02 0.396497E+05 0.275931E+06 0.107449E+08
     5211.00  0.275437E+02 0.379647E+05 0.282355E+06 0.100336E+08
     5236.00  0.301535E+02 0.363363E+05 0.288279E+06 0.935912E+07
     5261.00  0.327514E+02 0.347632E+05 0.293703E+06 0.872008E+07
     5286.00  0.353251E+02 0.332443E+05 0.298631E+06 0.811518E+07
     5311.00  0.378631E+02 0.317784E+05 0.303065E+06 0.754310E+07
     5336.00  0.403552E+02 0.303643E+05 0.307013E+06 0.700257E+07
     5361.00  0.427924E+02 0.290007E+05 0.310482E+06 0.649233E+07
     5386.00  0.451663E+02 0.276865E+05 0.313480E+06 0.601114E+07
     5411.00  0.474697E+02 0.264204E+05 0.316017E+06 0.555781E+07
     5436.00  0.496963E+02 0.252011E+05 0.318104E+06 0.513115E+07
     5461.00  0.518403E+02 0.240275E+05 0.319753E+06 0.473003E+07
     5511.00  0.558624E+02 0.218124E+05 0.321787E+06 0.399993E+07
     5561.00  0.595055E+02 0.197655E+05 0.322226E+06 0.335891E+07
     5611.00  0.627488E+02 0.178773E+05 0.321185E+06 0.279887E+07
     5661.00  0.655803E+02 0.161386E+05 0.318781E+06 0.231216E+07
     5711.00  0.679951E+02 0.145403E+05 0.315138E+06 0.189165E+07
     5761.00  0.699943E+02 0.130738E+05 0.310376E+06 0.153066E+07
     5811.00  0.715847E+02 0.117305E+05 0.304615E+06 0.122299E+07
     5861.00  0.727770E+02 0.105024E+05 0.297975E+06 0.962880E+06
     5911.00  0.735858E+02 0.938162E+04 0.290568E+06 0.745026E+06
     5961.00  0.740283E+02 0.836079E+04 0.282506E+06 0.564539E+06
     6011.00  0.741241E+02 0.743275E+04 0.273891E+06 0.416936E+06
     6061.00  0.738945E+02 0.659074E+04 0.264824E+06 0.298120E+06
     6111.00  0.733619E+02 0.582834E+04 0.255395E+06 0.204360E+06
     6161.00  0.725495E+02 0.513946E+04 0.245692E+06 0.132271E+06
     6211.00  0.714810E+02 0.451837E+04 0.235794E+06 0.787911E+05
     6261.00  0.701803E+02 0.395965E+04 0.225773E+06 0.411658E+05
     6311.00  0.686710E+02 0.345822E+04 0.215697E+06 0.169231E+05
     6361.00  0.669764E+02 0.300931E+04 0.205626E+06 0.385591E+04
     6411.00  0.651194E+02 0.260846E+04 0.195614E+06 0.161558E+01
     6461.00  0.631219E+02 0.225151E+04 0.185709E+06 0.362358E+04
     6511.00  0.610054E+02 0.193455E+04 0.175954E+06 0.131930E+05
     6561.00  0.587899E+02 0.165399E+04 0.166387E+06 0.273713E+05
     6611.00  0.564950E+02 0.140646E+04 0.157040E+06 0.449942E+05
     6661.00  0.541386E+02 0.118885E+04 0.147940E+06 0.650550E+05
     6711.00  0.517380E+02 0.998278E+03 0.139110E+06 0.866909E+05
     6761.00  0.493091E+02 0.832095E+03 0.130569E+06 0.109168E+06
     6811.00  0.468666E+02 0.687851E+03 0.122332E+06 0.131869E+06
     6861.00  0.444243E+02 0.563294E+03 0.114410E+06 0.154280E+06
     6911.00  0.419947E+02 0.456359E+03 0.106812E+06 0.175982E+06
     6961.00  0.395891E+02 0.365153E+03 0.995441E+05 0.196636E+06
     7011.00  0.372181E+02 0.287946E+03 0.926084E+05 0.215976E+06
     7061.00  0.348907E+02 0.223159E+03 0.860057E+05 0.233802E+06
     7111.00  0.326153E+02 0.169354E+03 0.797345E+05 0.249967E+06
     7161.00  0.303991E+02 0.125225E+03 0.737915E+05 0.264372E+06
     7211.00  0.282484E+02 0.895871E+02 0.681718E+05 0.276963E+06
     7261.00  0.261687E+02 0.613690E+02 0.628690E+05 0.287717E+06
     7311.00  0.241646E+02 0.396033E+02 0.578757E+05 0.296642E+06
     7361.00  0.222397E+02 0.234191E+02 0.531834E+05 0.303773E+06
     7411.00  0.203973E+02 0.120340E+02 0.487829E+05 0.309164E+06
     7511.00  0.169684E+02 0.931716E+00 0.408167E+05 0.315016E+06
     7611.00  0.138892E+02 0.154783E+01 0.338922E+05 0.314899E+06
     7711.00  0.111622E+02 0.101358E+02 0.279195E+05 0.309629E+06
     7811.00  0.878227E+01 0.237808E+02 0.228077E+05 0.300070E+06
     7911.00  0.673847E+01 0.402514E+02 0.184670E+05 0.287081E+06
     8011.00  0.501484E+01 0.578740E+02 0.148105E+05 0.271477E+06
     8111.00  0.359171E+01 0.754245E+02 0.117558E+05 0.254011E+06
     8211.00  0.244667E+01 0.920382E+02 0.922614E+04 0.235352E+06
     8311.00  0.155544E+01 0.107134E+03 0.715042E+04 0.216083E+06
     8411.00  0.892597E+00 0.120350E+03 0.546399E+04 0.196697E+06
     8511.00  0.432298E+00 0.131496E+03 0.410858E+04 0.177597E+06
     8611.00  0.148777E+00 0.140505E+03 0.303219E+04 0.159107E+06
     8711.00  0.168267E-01 0.147405E+03 0.218887E+04 0.141474E+06
     8811.00  0.121703E-01 0.152288E+03 0.153839E+04 0.124879E+06
     8911.00  0.111757E+00 0.155293E+03 0.104583E+04 0.109444E+06
     9011.00  0.293996E+00 0.156584E+03 0.681160E+03 0.952408E+05
     9111.00  0.538920E+00 0.156339E+03 0.418796E+03 0.823001E+05
     9211.00  0.828307E+00 0.154744E+03 0.237121E+03 0.706186E+05
     9311.00  0.114575E+01 0.151981E+03 0.118057E+03 0.601660E+05
     9411.00  0.147667E+01 0.148227E+03 0.466348E+02 0.508917E+05
     9511.00  0.180836E+01 0.143647E+03 0.105940E+02 0.427298E+05
     9611.00  0.212989E+01 0.138396E+03 0.119988E-01 0.356043E+05
     9711.00  0.243209E+01 0.132613E+03 0.696558E+01 0.294327E+05
     9811.00  0.270748E+01 0.126425E+03 0.252251E+02 0.241295E+05
     9911.00  0.295016E+01 0.119945E+03 0.499809E+02 0.196089E+05
    10011.00  0.315570E+01 0.113273E+03 0.776022E+02 0.157869E+05
    10111.00  0.332108E+01 0.106496E+03 0.105426E+03 0.125826E+05
    10211.00  0.344451E+01 0.996906E+02 0.131572E+03 0.991980E+04
    10311.00  0.352533E+01 0.929207E+02 0.154789E+03 0.772729E+04
    10411.00  0.356392E+01 0.862418E+02 0.174318E+03 0.593977E+04
    10511.00  0.356151E+01 0.797007E+02 0.189779E+03 0.449786E+04
    10611.00  0.352014E+01 0.733361E+02 0.201082E+03 0.334824E+04
    10711.00  0.344246E+01 0.671801E+02 0.208344E+03 0.244347E+04
    10811.00  0.333169E+01 0.612587E+02 0.211831E+03 0.174177E+04
    10911.00  0.319143E+01 0.555922E+02 0.211903E+03 0.120672E+04
    11011.00  0.302563E+01 0.501968E+02 0.208979E+03 0.806859E+03
    11111.00  0.283845E+01 0.450842E+02 0.203503E+03 0.515289E+03
    11211.00  0.263416E+01 0.402628E+02 0.195921E+03 0.309237E+03
    11311.00  0.241709E+01 0.357380E+02 0.186665E+03 0.169624E+03
    11411.00  0.219153E+01 0.315122E+02 0.176143E+03 0.806430E+02
    11511.00  0.196168E+01 0.275859E+02 0.164723E+03 0.293533E+02
    11611.00  0.173155E+01 0.239572E+02 0.152739E+03 0.530016E+01
    11711.00  0.150494E+01 0.206226E+02 0.140481E+03 0.160678E+00
    11811.00  0.128538E+01 0.175770E+02 0.128198E+03 0.742125E+01
    11911.00  0.107610E+01 0.148140E+02 0.116098E+03 0.220858E+02
    12011.00  0.880004E+00 0.123259E+02 0.104353E+03 0.404157E+02
    12111.00  0.699620E+00 0.101040E+02 0.930959E+02 0.597009E+02
    12211.00  0.537104E+00 0.813864E+01 0.824312E+02 0.780595E+02
    12311.00  0.394231E+00 0.641927E+01 0.724330E+02 0.942661E+02
    12411.00  0.272380E+00 0.493471E+01 0.631509E+02 0.107605E+03
    12511.00  0.172542E+00 0.367313E+01 0.546128E+02 0.117746E+03
    12611.00  0.953272E-01 0.262214E+01 0.468287E+02 0.124643E+03
    12711.00  0.409742E-01 0.176893E+01 0.397935E+02 0.128450E+03
    12811.00  0.936820E-02 0.110032E+01 0.334896E+02 0.129454E+03
    12911.00  0.602386E-04 0.602843E+00 0.278902E+02 0.128021E+03
    13011.00  0.122912E-01 0.262839E+00 0.229606E+02 0.124554E+03
    13111.00  0.450180E-01 0.665433E-01 0.186610E+02 0.119464E+03
    13211.00  0.969424E-01 0.156447E-03 0.149480E+02 0.113148E+03
    13311.00  0.166541E+00 0.499336E-01 0.117758E+02 0.105971E+03
    13411.00  0.252099E+00 0.202263E+00 0.909756E+01 0.982597E+02
    13511.00  0.351740E+00 0.443746E+00 0.686665E+01 0.902947E+02
    13611.00  0.463463E+00 0.761276E+00 0.503716E+01 0.823108E+02
    13711.00  0.585170E+00 0.114211E+01 0.356468E+01 0.744971E+02
    13811.00  0.714706E+00 0.157395E+01 0.240674E+01 0.669996E+02
    13911.00  0.849884E+00 0.204499E+01 0.152323E+01 0.599254E+02
    14011.00  0.988521E+00 0.254399E+01 0.876590E+00 0.533474E+02
    14111.00  0.112846E+01 0.306035E+01 0.432013E+00 0.473088E+02
    14211.00  0.126761E+01 0.358414E+01 0.157507E+00 0.418290E+02
    14311.00  0.140396E+01 0.410613E+01 0.239138E-01 0.369076E+02
    14411.00  0.153560E+01 0.461787E+01 0.487997E-02 0.325292E+02
    14511.00  0.166075E+01 0.511168E+01 0.767815E-01 0.286674E+02
    14611.00  0.177778E+01 0.558069E+01 0.218622E+00 0.252880E+02
    14711.00  0.188523E+01 0.601885E+01 0.411907E+00 0.223523E+02
    14811.00  0.198178E+01 0.642094E+01 0.640502E+00 0.198193E+02
    14911.00  0.206633E+01 0.678257E+01 0.890481E+00 0.176477E+02
    15011.00  0.213796E+01 0.710015E+01 0.114997E+01 0.157969E+02
    15111.00  0.219593E+01 0.737093E+01 0.140898E+01 0.142287E+02
    15211.00  0.223972E+01 0.759289E+01 0.165927E+01 0.129074E+02
    15311.00  0.226900E+01 0.776477E+01 0.189415E+01 0.118004E+02
    15411.00  0.228362E+01 0.788606E+01 0.210839E+01 0.108784E+02
    15511.00  0.228364E+01 0.795687E+01 0.229799E+01 0.101150E+02
    15611.00  0.226929E+01 0.797796E+01 0.246013E+01 0.948700E+01
    15711.00  0.224097E+01 0.795068E+01 0.259299E+01 0.897384E+01
    15811.00  0.219927E+01 0.787689E+01 0.269562E+01 0.855732E+01
    15911.00  0.214488E+01 0.775890E+01 0.276784E+01 0.822136E+01
    16011.00  0.207867E+01 0.759948E+01 0.281015E+01 0.795166E+01
    16111.00  0.200160E+01 0.740171E+01 0.282358E+01 0.773541E+01
    16211.00  0.191477E+01 0.716898E+01 0.280962E+01 0.756102E+01
    16311.00  0.181934E+01 0.690493E+01 0.277016E+01 0.741802E+01
    16411.00  0.171654E+01 0.661335E+01 0.270737E+01 0.729679E+01
    16511.00  0.160769E+01 0.629818E+01 0.262365E+01 0.718857E+01
    16611.00  0.149410E+01 0.596343E+01 0.252155E+01 0.708539E+01
    16711.00  0.137715E+01 0.561311E+01 0.240373E+01 0.698000E+01
    16811.00  0.125818E+01 0.525121E+01 0.227286E+01 0.686595E+01
    16911.00  0.113856E+01 0.488165E+01 0.213163E+01 0.673762E+01
    17011.00  0.101961E+01 0.450822E+01 0.198268E+01 0.659023E+01
    17111.00  0.902605E+00 0.413456E+01 0.182855E+01 0.641996E+01
    17211.00  0.788788E+00 0.376414E+01 0.167165E+01 0.622394E+01
    17311.00  0.679322E+00 0.340018E+01 0.151427E+01 0.600035E+01
    17411.00  0.575292E+00 0.304569E+01 0.135850E+01 0.574839E+01
    17511.00  0.477701E+00 0.270340E+01 0.120626E+01 0.546831E+01
    17611.00  0.387453E+00 0.237577E+01 0.105925E+01 0.516140E+01
    17711.00  0.305351E+00 0.206496E+01 0.918960E+00 0.482990E+01
    17811.00  0.232086E+00 0.177285E+01 0.786675E+00 0.447698E+01
    17911.00  0.168239E+00 0.150099E+01 0.663444E+00 0.410662E+01
    18011.00  0.114271E+00 0.125065E+01 0.550098E+00 0.372348E+01
    18111.00  0.705280E-01 0.102279E+01 0.447257E+00 0.333279E+01
    18211.00  0.372352E-01 0.818095E+00 0.355329E+00 0.294019E+01
    18311.00  0.145005E-01 0.636942E+00 0.274526E+00 0.255154E+01
    18411.00  0.231627E-02 0.479452E+00 0.204875E+00 0.217283E+01
    18511.00  0.562433E-03 0.345485E+00 0.146230E+00 0.180992E+01
    18611.00  0.901089E-02 0.234663E+00 0.982918E-01 0.146848E+01
    18711.00  0.273310E-01 0.146383E+00 0.606204E-01 0.115374E+01
    18811.00  0.550957E-01 0.798430E-01 0.326570E-01 0.870435E+00
    18911.00  0.917890E-01 0.340561E-01 0.137407E-01 0.622642E+00
    19011.00  0.136813E+00 0.787689E-02 0.312749E-02 0.413689E+00
    19111.00  0.189498E+00 0.211956E-04 0.905098E-05 0.246082E+00
    19311.00  0.314856E+00 0.335840E-01 0.128117E-01 0.404937E-01
    19511.00  0.461387E+00 0.122541E+00 0.450774E-01 0.796602E-02
    19711.00  0.622049E+00 0.253865E+00 0.897949E-01 0.136438E+00
    19911.00  0.789544E+00 0.414346E+00 0.140451E+00 0.401304E+00
    20111.00  0.956621E+00 0.591166E+00 0.191368E+00 0.768152E+00
    20311.00  0.111636E+01 0.772388E+00 0.237937E+00 0.119629E+01
    20511.00  0.126243E+01 0.947352E+00 0.276737E+00 0.164263E+01
    20711.00  0.138929E+01 0.110697E+01 0.305560E+00 0.206553E+01
    20911.00  0.149239E+01 0.124394E+01 0.323344E+00 0.242823E+01
    21111.00  0.156825E+01 0.135280E+01 0.330037E+00 0.270162E+01
    21311.00  0.161460E+01 0.143002E+01 0.326414E+00 0.286607E+01
    21511.00  0.163036E+01 0.147384E+01 0.313861E+00 0.291234E+01
    21711.00  0.161562E+01 0.148422E+01 0.294162E+00 0.284147E+01
    21911.00  0.157162E+01 0.146260E+01 0.269285E+00 0.266387E+01
    22111.00  0.150061E+01 0.141166E+01 0.241201E+00 0.239766E+01
    22311.00  0.140575E+01 0.133514E+01 0.211735E+00 0.206657E+01
    22511.00  0.129092E+01 0.123747E+01 0.182457E+00 0.169751E+01
    22711.00  0.116057E+01 0.112358E+01 0.154621E+00 0.131822E+01
    22911.00  0.101953E+01 0.998607E+00 0.129135E+00 0.954999E+00
    23111.00  0.872802E+00 0.867645E+00 0.106571E+00 0.630813E+00
    23311.00  0.725411E+00 0.735559E+00 0.872000E-01 0.363841E+00
    23511.00  0.582189E+00 0.606785E+00 0.710438E-01 0.166546E+00
    23711.00  0.447642E+00 0.485199E+00 0.579406E-01 0.452918E-01
    23911.00  0.325794E+00 0.373999E+00 0.476057E-01 0.440308E-03
    24111.00  0.220083E+00 0.275658E+00 0.396925E-01 0.269091E-01
    24311.00  0.133258E+00 0.191875E+00 0.338400E-01 0.115064E+00
    24511.00  0.673247E-01 0.123599E+00 0.297094E-01 0.251858E+00
    24711.00  0.235113E-01 0.710576E-01 0.270053E-01 0.422087E+00
    24911.00  0.226040E-02 0.338237E-01 0.254843E-01 0.609678E+00
    25111.00  0.325153E-02 0.109022E-01 0.249527E-01 0.798885E+00
    25311.00  0.254466E-01 0.829688E-03 0.252550E-01 0.975343E+00
    25511.00  0.671568E-01 0.178589E-02 0.262587E-01 0.112690E+01
    25711.00  0.126128E+00 0.117084E-01 0.278372E-01 0.124422E+01
    25911.00  0.199639E+00 0.284066E-01 0.298552E-01 0.132111E+01
    26111.00  0.284613E+00 0.496698E-01 0.321578E-01 0.135457E+01
    26311.00  0.377733E+00 0.733660E-01 0.345664E-01 0.134474E+01
    26511.00  0.475554E+00 0.975263E-01 0.368804E-01 0.129448E+01
    26711.00  0.574630E+00 0.120416E+00 0.388858E-01 0.120894E+01
    26911.00  0.671608E+00 0.140586E+00 0.403685E-01 0.109499E+01
         IE==>      4            5            6
        1.00  0.000000E+00 0.000000E+00 0.000000E+00
        2.00  0.000000E+00 0.000000E+00 0.000000E+00
        3.00  0.000000E+00 0.000000E+00 0.000000E+00
        4.00  0.000000E+00 0.000000E+00 0.000000E+00
        5.00  0.000000E+00 0.000000E+00 0.177879E-37
        6.00  0.000000E+00 0.000000E+00 0.884743E-36
        7.00  0.000000E+00 0.870420E-37 0.240149E-34
        8.00  0.994810E-37 0.152789E-35 0.418435E-33
        9.00  0.124932E-35 0.191166E-34 0.519687E-32
       10.00  0.120121E-34 0.183120E-33 0.494168E-31
       11.00  0.930515E-34 0.141325E-32 0.378598E-30
       12.00  0.603036E-33 0.912463E-32 0.242664E-29
       13.00  0.336432E-32 0.507159E-31 0.133898E-28
       14.00  0.165211E-31 0.248119E-30 0.650345E-28
       15.00  0.726817E-31 0.108747E-29 0.282985E-27
       16.00  0.290551E-30 0.433094E-29 0.111893E-26
       17.00  0.106777E-29 0.158564E-28 0.406735E-26
       18.00  0.364226E-29 0.538843E-28 0.137235E-25
       19.00  0.116253E-28 0.171340E-27 0.433280E-25
       20.00  0.349575E-28 0.513280E-27 0.128879E-24
       21.00  0.996110E-28 0.145707E-26 0.363275E-24
       22.00  0.270322E-27 0.393921E-26 0.975220E-24
       23.00  0.701691E-27 0.101866E-25 0.250421E-23
       24.00  0.174883E-26 0.252919E-25 0.617421E-23
       25.00  0.419882E-26 0.604939E-25 0.146649E-22
       26.00  0.974002E-26 0.139795E-24 0.336540E-22
       27.00  0.218863E-25 0.312931E-24 0.748141E-22
       28.00  0.477499E-25 0.680130E-24 0.161482E-21
       29.00  0.101358E-24 0.143820E-23 0.339123E-21
       30.00  0.209719E-24 0.296440E-23 0.694214E-21
       31.00  0.423684E-24 0.596591E-23 0.138759E-20
       32.00  0.837005E-24 0.117408E-22 0.271216E-20
       33.00  0.161918E-23 0.226253E-22 0.519110E-20
       34.00  0.307105E-23 0.427481E-22 0.974172E-20
       35.00  0.571746E-23 0.792792E-22 0.179449E-19
       36.00  0.104592E-22 0.144470E-21 0.324813E-19
       37.00  0.188186E-22 0.258935E-21 0.578266E-19
       38.00  0.333318E-22 0.456859E-21 0.101347E-18
       39.00  0.581655E-22 0.794158E-21 0.174998E-18
       40.00  0.100077E-21 0.136111E-20 0.297939E-18
       42.00  0.284745E-21 0.384269E-20 0.830065E-18
       44.00  0.771605E-21 0.103321E-19 0.220263E-17
       46.00  0.200004E-20 0.265727E-19 0.559112E-17
       48.00  0.497773E-20 0.656179E-19 0.136279E-16
       50.00  0.119348E-19 0.156096E-18 0.320016E-16
       52.00  0.276482E-19 0.358769E-18 0.726112E-16
       54.00  0.620458E-19 0.798773E-18 0.159606E-15
       56.00  0.135194E-18 0.172672E-17 0.340657E-15
       58.00  0.286617E-18 0.363169E-17 0.707463E-15
       60.00  0.592318E-18 0.744548E-17 0.143224E-14
       62.00  0.119521E-17 0.149040E-16 0.283130E-14
       64.00  0.235846E-17 0.291741E-16 0.547353E-14
       66.00  0.455730E-17 0.559210E-16 0.103624E-13
       68.00  0.863424E-17 0.105094E-15 0.192357E-13
       70.00  0.160574E-16 0.193868E-15 0.350515E-13
       72.00  0.293438E-16 0.351409E-15 0.627640E-13
       74.00  0.527432E-16 0.626493E-15 0.110545E-12
       76.00  0.933271E-16 0.109951E-14 0.191678E-12
       78.00  0.162703E-15 0.190116E-14 0.327466E-12
       80.00  0.279679E-15 0.324115E-14 0.551631E-12
       82.00  0.474354E-15 0.545189E-14 0.916902E-12
       84.00  0.794337E-15 0.905406E-14 0.150477E-11
       86.00  0.131411E-14 0.148542E-13 0.243978E-11
       88.00  0.214893E-14 0.240885E-13 0.391031E-11
       90.00  0.347544E-14 0.386326E-13 0.619835E-11
       92.00  0.556167E-14 0.613043E-13 0.972206E-11
       94.00  0.881061E-14 0.962989E-13 0.150958E-10
       96.00  0.138229E-13 0.149807E-12 0.232144E-10
       98.00  0.214862E-13 0.230885E-12 0.353698E-10
      100.00  0.331019E-13 0.352677E-12 0.534131E-10
      102.00  0.505626E-13 0.534109E-12 0.799753E-10
      104.00  0.766013E-13 0.802230E-12 0.118768E-09
      106.00  0.115136E-12 0.119542E-11 0.174992E-09
      108.00  0.171743E-12 0.176776E-11 0.255882E-09
      110.00  0.254311E-12 0.259495E-11 0.371434E-09
      112.00  0.373926E-12 0.378228E-11 0.535381E-09
      114.00  0.546068E-12 0.547526E-11 0.766462E-09
      116.00  0.792235E-12 0.787384E-11 0.109010E-08
      118.00  0.114210E-11 0.112512E-10 0.154061E-08
      122.00  0.233083E-11 0.225568E-10 0.302174E-08
      126.00  0.464903E-11 0.441916E-10 0.579261E-08
      130.00  0.907587E-11 0.847252E-10 0.108686E-07
      134.00  0.173646E-10 0.159173E-09 0.199858E-07
      138.00  0.325997E-10 0.293380E-09 0.360614E-07
      142.00  0.601189E-10 0.531094E-09 0.639153E-07
      146.00  0.109017E-09 0.945204E-09 0.111389E-06
      150.00  0.194564E-09 0.165536E-08 0.191053E-06
      154.00  0.342049E-09 0.285524E-08 0.322779E-06
      158.00  0.592810E-09 0.485418E-08 0.537571E-06
      162.00  0.101359E-08 0.814010E-08 0.883205E-06
      166.00  0.171090E-08 0.134734E-07 0.143243E-05
      170.00  0.285283E-08 0.220258E-07 0.229478E-05
      174.00  0.470188E-08 0.355831E-07 0.363344E-05
      178.00  0.766390E-08 0.568395E-07 0.568898E-05
      182.00  0.123604E-07 0.898191E-07 0.881272E-05
      186.00  0.197344E-07 0.140477E-06 0.135128E-04
      190.00  0.312046E-07 0.217545E-06 0.205179E-04
      194.00  0.488881E-07 0.333720E-06 0.308639E-04
      198.00  0.759186E-07 0.507312E-06 0.460115E-04
      202.00  0.116901E-06 0.764517E-06 0.680047E-04
      206.00  0.178552E-06 0.114254E-05 0.996822E-04
      210.00  0.270604E-06 0.169381E-05 0.144958E-03
      214.00  0.407063E-06 0.249174E-05 0.209192E-03
      218.00  0.607964E-06 0.363842E-05 0.299675E-03
      222.00  0.901788E-06 0.527487E-05 0.426259E-03
      226.00  0.132879E-05 0.759473E-05 0.602180E-03
      230.00  0.194557E-05 0.108623E-04 0.845111E-03
      234.00  0.283126E-05 0.154361E-04 0.117852E-02
      238.00  0.409597E-05 0.218004E-04 0.163338E-02
      242.00  0.589215E-05 0.306047E-04 0.225041E-02
      246.00  0.842994E-05 0.427170E-04 0.308277E-02
      250.00  0.119977E-04 0.592901E-04 0.419961E-02
      254.00  0.169892E-04 0.818489E-04 0.569040E-02
      258.00  0.239407E-04 0.112401E-03 0.767036E-02
      262.00  0.335787E-04 0.153575E-03 0.102872E-01
      266.00  0.468844E-04 0.208804E-03 0.137296E-01
      270.00  0.651783E-04 0.282545E-03 0.182371E-01
      274.00  0.902313E-04 0.380567E-03 0.241132E-01
      282.00  0.170873E-03 0.681308E-03 0.415997E-01
      290.00  0.318782E-03 0.119932E-02 0.705677E-01
      298.00  0.586552E-03 0.207792E-02 0.117816E+00
      306.00  0.106555E-02 0.354662E-02 0.193757E+00
      314.00  0.191308E-02 0.596838E-02 0.314122E+00
      322.00  0.339796E-02 0.991047E-02 0.502396E+00
      330.00  0.597655E-02 0.162499E-01 0.793213E+00
      338.00  0.104195E-01 0.263288E-01 0.123709E+01
      346.00  0.180230E-01 0.421819E-01 0.190689E+01
      354.00  0.309607E-01 0.668667E-01 0.290667E+01
      362.00  0.528731E-01 0.104943E+00 0.438350E+01
      370.00  0.898582E-01 0.163162E+00 0.654330E+01
      378.00  0.152150E+00 0.251464E+00 0.967179E+01
      386.00  0.256986E+00 0.384409E+00 0.141617E+02
      394.00  0.433573E+00 0.583245E+00 0.205484E+02
      402.00  0.731818E+00 0.878920E+00 0.295544E+02
      410.00  0.123797E+01 0.131650E+01 0.421471E+02
      418.00  0.210338E+01 0.196175E+01 0.596088E+02
      426.00  0.359882E+01 0.291126E+01 0.836225E+02
      434.00  0.622116E+01 0.430835E+01 0.116371E+03
      442.00  0.109122E+02 0.636936E+01 0.160646E+03
      450.00  0.195339E+02 0.942983E+01 0.219944E+03
      458.00  0.359776E+02 0.140322E+02 0.298506E+03
      466.00  0.690052E+02 0.211104E+02 0.401184E+03
      474.00  0.140498E+03 0.324356E+02 0.532745E+03
      482.00  0.314015E+03 0.519074E+02 0.695465E+03
      490.00  0.824021E+03 0.904480E+02 0.880230E+03
      498.00  0.301384E+04 0.195356E+03 0.102370E+04
      506.00  0.330313E+05 0.102730E+04 0.606689E+03
      514.00  0.583066E+05 0.542798E+03 0.555976E+04
      522.00  0.772974E+04 0.171301E+01 0.435539E+04
      530.00  0.357914E+04 0.168187E+02 0.507277E+04
      538.00  0.236245E+04 0.559853E+02 0.626848E+04
      546.00  0.184610E+04 0.107592E+03 0.788284E+04
      554.00  0.159093E+04 0.174412E+03 0.997104E+04
      562.00  0.146039E+04 0.261499E+03 0.126295E+05
      570.00  0.140025E+04 0.375327E+03 0.159855E+05
      578.00  0.138546E+04 0.524002E+03 0.201980E+05
      586.00  0.140328E+04 0.717662E+03 0.254617E+05
      596.00  0.146135E+04 0.104262E+04 0.338848E+05
      606.00  0.155307E+04 0.148987E+04 0.448969E+05
      616.00  0.167546E+04 0.210149E+04 0.592199E+05
      626.00  0.182770E+04 0.293266E+04 0.777582E+05
      636.00  0.201022E+04 0.405543E+04 0.101641E+06
      646.00  0.222425E+04 0.556352E+04 0.132270E+06
      656.00  0.247152E+04 0.757831E+04 0.171384E+06
      666.00  0.275406E+04 0.102564E+05 0.221123E+06
      676.00  0.307399E+04 0.137989E+05 0.284120E+06
      686.00  0.343341E+04 0.184636E+05 0.363599E+06
      696.00  0.383423E+04 0.245790E+05 0.463494E+06
      706.00  0.427795E+04 0.325635E+05 0.588592E+06
      716.00  0.476551E+04 0.429469E+05 0.744701E+06
      726.00  0.529697E+04 0.563995E+05 0.938847E+06
      736.00  0.587129E+04 0.737659E+05 0.117950E+07
      746.00  0.648595E+04 0.961077E+05 0.147686E+07
      756.00  0.713662E+04 0.124756E+06 0.184313E+07
      766.00  0.781677E+04 0.161375E+06 0.229295E+07
      776.00  0.851717E+04 0.208044E+06 0.284379E+07
      786.00  0.922554E+04 0.267348E+06 0.351645E+07
      796.00  0.992595E+04 0.342503E+06 0.433565E+07
      806.00  0.105985E+05 0.437496E+06 0.533073E+07
      816.00  0.112189E+05 0.557262E+06 0.653638E+07
      826.00  0.117584E+05 0.707899E+06 0.799363E+07
      836.00  0.121835E+05 0.896936E+06 0.975084E+07
      846.00  0.124569E+05 0.113365E+07 0.118650E+08
      856.00  0.125379E+05 0.142944E+07 0.144031E+08
      866.00  0.123843E+05 0.179835E+07 0.174438E+08
      876.00  0.119553E+05 0.225760E+07 0.210792E+08
      886.00  0.112155E+05 0.282830E+07 0.254173E+08
      896.00  0.101418E+05 0.353633E+07 0.305843E+08
      906.00  0.873184E+04 0.441339E+07 0.367277E+08
      916.00  0.701755E+04 0.549826E+07 0.440198E+08
      926.00  0.508263E+04 0.683836E+07 0.526612E+08
      936.00  0.308726E+04 0.849171E+07 0.628861E+08
      946.00  0.130150E+04 0.105292E+08 0.749669E+08
      956.00  0.150261E+03 0.130374E+08 0.892208E+08
      966.00  0.273651E+03 0.161221E+08 0.106017E+09
      976.00  0.260743E+04 0.199129E+08 0.125784E+09
      986.00  0.848985E+04 0.245677E+08 0.149022E+09
      996.00  0.198032E+05 0.302802E+08 0.176313E+09
     1006.00  0.391609E+05 0.372872E+08 0.208331E+09
     1016.00  0.701540E+05 0.458786E+08 0.245864E+09
     1026.00  0.117676E+06 0.564100E+08 0.289829E+09
     1036.00  0.188351E+06 0.693177E+08 0.341292E+09
     1046.00  0.291098E+06 0.851381E+08 0.401502E+09
     1056.00  0.437873E+06 0.104531E+09 0.471913E+09
     1066.00  0.644650E+06 0.128312E+09 0.554229E+09
     1076.00  0.932717E+06 0.157485E+09 0.650448E+09
     1086.00  0.133039E+07 0.193298E+09 0.762914E+09
     1096.00  0.187529E+07 0.237297E+09 0.894387E+09
     1106.00  0.261739E+07 0.291409E+09 0.104813E+10
     1116.00  0.362304E+07 0.358040E+09 0.122799E+10
     1126.00  0.498044E+07 0.440209E+09 0.143856E+10
     1136.00  0.680698E+07 0.541716E+09 0.168531E+10
     1146.00  0.925918E+07 0.667363E+09 0.197479E+10
     1156.00  0.125463E+08 0.823255E+09 0.231490E+10
     1166.00  0.169490E+08 0.101719E+10 0.271519E+10
     1176.00  0.228452E+08 0.125919E+10 0.318732E+10
     1186.00  0.307463E+08 0.156223E+10 0.374557E+10
     1196.00  0.413477E+08 0.194322E+10 0.440764E+10
     1206.00  0.556021E+08 0.242437E+10 0.519559E+10
     1216.00  0.748234E+08 0.303519E+10 0.613723E+10
     1226.00  0.100840E+09 0.381520E+10 0.726800E+10
     1236.00  0.136223E+09 0.481801E+10 0.863362E+10
     1246.00  0.184627E+09 0.611730E+10 0.102939E+11
     1256.00  0.251314E+09 0.781575E+10 0.123281E+11
     1266.00  0.343985E+09 0.100590E+11 0.148436E+11
     1276.00  0.474097E+09 0.130572E+11 0.179882E+11
     1286.00  0.659056E+09 0.171211E+11 0.219703E+11
     1296.00  0.925927E+09 0.227203E+11 0.270909E+11
     1306.00  0.131797E+10 0.305865E+11 0.337981E+11
     1316.00  0.190659E+10 0.418971E+11 0.427805E+11
     1326.00  0.281419E+10 0.586218E+11 0.551387E+11
     1336.00  0.426011E+10 0.842071E+11 0.727087E+11
     1346.00  0.665824E+10 0.125002E+12 0.987087E+11
     1351.10  0.848727E+10 0.155261E+12 0.116958E+12
     1351.35  0.859163E+10 0.156971E+12 0.117969E+12
     1351.60  0.869752E+10 0.158704E+12 0.118992E+12
     1351.85  0.880496E+10 0.160462E+12 0.120027E+12
     1352.10  0.891400E+10 0.162243E+12 0.121074E+12
     1352.35  0.902465E+10 0.164049E+12 0.122134E+12
     1352.60  0.913693E+10 0.165880E+12 0.123206E+12
     1352.85  0.925089E+10 0.167736E+12 0.124291E+12
     1353.11  0.936655E+10 0.169619E+12 0.125389E+12
     1353.36  0.948393E+10 0.171527E+12 0.126500E+12
     1353.61  0.960307E+10 0.173463E+12 0.127625E+12
     1353.86  0.972401E+10 0.175426E+12 0.128763E+12
     1354.11  0.984676E+10 0.177416E+12 0.129915E+12
     1354.36  0.997137E+10 0.179434E+12 0.131081E+12
     1354.61  0.100979E+11 0.181481E+12 0.132261E+12
     1354.86  0.102263E+11 0.183558E+12 0.133455E+12
     1355.11  0.103566E+11 0.185663E+12 0.134664E+12
     1355.36  0.104890E+11 0.187799E+12 0.135888E+12
     1355.61  0.106234E+11 0.189966E+12 0.137127E+12
     1355.86  0.107598E+11 0.192163E+12 0.138382E+12
     1356.00  0.108359E+11 0.193388E+12 0.139080E+12
     1356.11  0.108983E+11 0.194392E+12 0.139652E+12
     1356.36  0.110390E+11 0.196654E+12 0.140937E+12
     1356.61  0.111818E+11 0.198948E+12 0.142239E+12
     1356.86  0.113269E+11 0.201276E+12 0.143557E+12
     1357.12  0.114742E+11 0.203637E+12 0.144892E+12
     1357.37  0.116238E+11 0.206033E+12 0.146243E+12
     1357.62  0.117757E+11 0.208464E+12 0.147612E+12
     1357.87  0.119300E+11 0.210931E+12 0.148997E+12
     1358.12  0.120867E+11 0.213433E+12 0.150401E+12
     1358.37  0.122459E+11 0.215973E+12 0.151822E+12
     1358.62  0.124076E+11 0.218551E+12 0.153261E+12
     1358.87  0.125719E+11 0.221167E+12 0.154719E+12
     1359.12  0.127387E+11 0.223821E+12 0.156195E+12
     1359.37  0.129082E+11 0.226515E+12 0.157691E+12
     1359.62  0.130804E+11 0.229250E+12 0.159205E+12
     1359.87  0.132553E+11 0.232025E+12 0.160740E+12
     1360.12  0.134331E+11 0.234842E+12 0.162294E+12
     1360.37  0.136136E+11 0.237702E+12 0.163868E+12
     1360.62  0.137971E+11 0.240605E+12 0.165463E+12
     1360.87  0.139836E+11 0.243552E+12 0.167079E+12
     1361.13  0.141730E+11 0.246543E+12 0.168716E+12
     1361.38  0.143655E+11 0.249580E+12 0.170374E+12
     1361.63  0.145612E+11 0.252664E+12 0.172055E+12
     1361.88  0.147600E+11 0.255794E+12 0.173757E+12
     1362.13  0.149620E+11 0.258973E+12 0.175483E+12
     1362.38  0.151674E+11 0.262200E+12 0.177231E+12
     1362.63  0.153761E+11 0.265477E+12 0.179002E+12
     1362.88  0.155883E+11 0.268805E+12 0.180797E+12
     1363.13  0.158039E+11 0.272185E+12 0.182616E+12
     1363.38  0.160231E+11 0.275616E+12 0.184459E+12
     1363.63  0.162459E+11 0.279102E+12 0.186328E+12
     1363.88  0.164724E+11 0.282641E+12 0.188221E+12
     1364.13  0.167027E+11 0.286236E+12 0.190140E+12
     1364.38  0.169368E+11 0.289887E+12 0.192085E+12
     1364.63  0.171748E+11 0.293596E+12 0.194056E+12
     1364.88  0.174167E+11 0.297363E+12 0.196054E+12
     1365.14  0.176627E+11 0.301189E+12 0.198080E+12
     1365.39  0.179129E+11 0.305076E+12 0.200133E+12
     1365.64  0.181673E+11 0.309025E+12 0.202214E+12
     1365.89  0.184259E+11 0.313036E+12 0.204324E+12
     1366.00  0.185440E+11 0.314866E+12 0.205285E+12
     1366.14  0.186889E+11 0.317111E+12 0.206463E+12
     1366.39  0.189564E+11 0.321251E+12 0.208631E+12
     1366.64  0.192284E+11 0.325457E+12 0.210829E+12
     1366.89  0.195050E+11 0.329730E+12 0.213057E+12
     1367.14  0.197863E+11 0.334072E+12 0.215317E+12
     1367.39  0.200724E+11 0.338484E+12 0.217608E+12
     1367.64  0.203634E+11 0.342967E+12 0.219930E+12
     1367.89  0.206594E+11 0.347522E+12 0.222285E+12
     1368.14  0.209604E+11 0.352151E+12 0.224673E+12
     1368.39  0.212667E+11 0.356855E+12 0.227094E+12
     1368.64  0.215781E+11 0.361635E+12 0.229549E+12
     1368.89  0.218950E+11 0.366492E+12 0.232039E+12
     1369.15  0.222173E+11 0.371429E+12 0.234563E+12
     1369.40  0.225452E+11 0.376446E+12 0.237123E+12
     1369.65  0.228788E+11 0.381545E+12 0.239719E+12
     1369.90  0.232181E+11 0.386728E+12 0.242351E+12
     1370.15  0.235634E+11 0.391995E+12 0.245021E+12
     1370.40  0.239146E+11 0.397348E+12 0.247728E+12
     1370.65  0.242720E+11 0.402790E+12 0.250474E+12
     1370.90  0.246356E+11 0.408321E+12 0.253258E+12
     1371.15  0.250055E+11 0.413942E+12 0.256082E+12
     1371.40  0.253819E+11 0.419657E+12 0.258945E+12
     1371.65  0.257648E+11 0.425465E+12 0.261849E+12
     1371.90  0.261545E+11 0.431370E+12 0.264795E+12
     1372.15  0.265510E+11 0.437372E+12 0.267782E+12
     1372.40  0.269545E+11 0.443473E+12 0.270811E+12
     1372.65  0.273650E+11 0.449675E+12 0.273884E+12
     1372.90  0.277827E+11 0.455979E+12 0.277000E+12
     1373.16  0.282078E+11 0.462388E+12 0.280160E+12
     1373.41  0.286403E+11 0.468903E+12 0.283364E+12
     1373.66  0.290805E+11 0.475526E+12 0.286615E+12
     1373.91  0.295284E+11 0.482259E+12 0.289911E+12
     1374.16  0.299842E+11 0.489103E+12 0.293254E+12
     1374.41  0.304479E+11 0.496061E+12 0.296644E+12
     1374.66  0.309199E+11 0.503134E+12 0.300081E+12
     1374.91  0.314002E+11 0.510324E+12 0.303568E+12
     1375.16  0.318889E+11 0.517633E+12 0.307103E+12
     1375.41  0.323862E+11 0.525063E+12 0.310688E+12
     1375.66  0.328922E+11 0.532616E+12 0.314324E+12
     1375.91  0.334071E+11 0.540293E+12 0.318010E+12
     1376.00  0.335900E+11 0.543018E+12 0.319316E+12
     1376.16  0.339311E+11 0.548098E+12 0.321748E+12
     1376.41  0.344643E+11 0.556031E+12 0.325537E+12
     1376.66  0.350068E+11 0.564094E+12 0.329380E+12
     1376.91  0.355588E+11 0.572290E+12 0.333276E+12
     1377.17  0.361204E+11 0.580621E+12 0.337225E+12
     1377.42  0.366918E+11 0.589088E+12 0.341229E+12
     1377.67  0.372732E+11 0.597694E+12 0.345288E+12
     1377.92  0.378648E+11 0.606440E+12 0.349402E+12
     1378.17  0.384665E+11 0.615328E+12 0.353572E+12
     1378.42  0.390787E+11 0.624360E+12 0.357799E+12
     1378.67  0.397015E+11 0.633539E+12 0.362083E+12
     1378.92  0.403350E+11 0.642865E+12 0.366424E+12
     1379.17  0.409794E+11 0.652342E+12 0.370823E+12
     1379.42  0.416348E+11 0.661970E+12 0.375280E+12
     1379.67  0.423014E+11 0.671752E+12 0.379795E+12
     1379.92  0.429794E+11 0.681689E+12 0.384370E+12
     1380.17  0.436688E+11 0.691783E+12 0.389004E+12
     1380.42  0.443699E+11 0.702036E+12 0.393698E+12
     1380.67  0.450827E+11 0.712450E+12 0.398452E+12
     1380.92  0.458075E+11 0.723026E+12 0.403265E+12
     1381.18  0.465443E+11 0.733765E+12 0.408139E+12
     1381.43  0.472933E+11 0.744669E+12 0.413074E+12
     1381.68  0.480546E+11 0.755740E+12 0.418069E+12
     1381.93  0.488284E+11 0.766979E+12 0.423125E+12
     1382.18  0.496147E+11 0.778387E+12 0.428241E+12
     1382.43  0.504137E+11 0.789966E+12 0.433417E+12
     1382.68  0.512255E+11 0.801715E+12 0.438655E+12
     1382.93  0.520502E+11 0.813637E+12 0.443952E+12
     1383.18  0.528878E+11 0.825732E+12 0.449309E+12
     1383.43  0.537386E+11 0.838001E+12 0.454726E+12
     1383.68  0.546025E+11 0.850444E+12 0.460202E+12
     1383.93  0.554796E+11 0.863062E+12 0.465737E+12
     1384.18  0.563701E+11 0.875856E+12 0.471331E+12
     1384.43  0.572738E+11 0.888824E+12 0.476981E+12
     1384.68  0.581910E+11 0.901968E+12 0.482689E+12
     1384.93  0.591216E+11 0.915286E+12 0.488453E+12
     1385.19  0.600655E+11 0.928779E+12 0.494271E+12
     1385.44  0.610229E+11 0.942446E+12 0.500144E+12
     1385.69  0.619938E+11 0.956287E+12 0.506069E+12
     1385.94  0.629780E+11 0.970298E+12 0.512047E+12
     1386.00  0.632271E+11 0.973842E+12 0.513555E+12
     1386.19  0.639755E+11 0.984481E+12 0.518074E+12
     1386.44  0.649864E+11 0.998832E+12 0.524150E+12
     1386.69  0.660104E+11 0.101335E+13 0.530273E+12
     1386.94  0.670475E+11 0.102803E+13 0.536442E+12
     1387.19  0.680976E+11 0.104288E+13 0.542654E+12
     1387.44  0.691606E+11 0.105789E+13 0.548907E+12
     1387.69  0.702363E+11 0.107305E+13 0.555199E+12
     1387.94  0.713244E+11 0.108836E+13 0.561528E+12
     1388.19  0.724249E+11 0.110383E+13 0.567891E+12
     1388.44  0.735374E+11 0.111944E+13 0.574286E+12
     1388.69  0.746617E+11 0.113519E+13 0.580710E+12
     1388.94  0.757975E+11 0.115108E+13 0.587159E+12
     1389.20  0.769445E+11 0.116710E+13 0.593631E+12
     1389.45  0.781024E+11 0.118324E+13 0.600121E+12
     1389.70  0.792708E+11 0.119950E+13 0.606628E+12
     1389.95  0.804492E+11 0.121587E+13 0.613146E+12
     1390.20  0.816373E+11 0.123235E+13 0.619672E+12
     1390.45  0.828345E+11 0.124893E+13 0.626201E+12
     1390.70  0.840404E+11 0.126559E+13 0.632730E+12
     1390.95  0.852544E+11 0.128234E+13 0.639254E+12
     1391.20  0.864760E+11 0.129916E+13 0.645768E+12
     1391.45  0.877045E+11 0.131604E+13 0.652268E+12
     1391.70  0.889393E+11 0.133297E+13 0.658747E+12
     1391.95  0.901798E+11 0.134995E+13 0.665202E+12
     1392.20  0.914251E+11 0.136695E+13 0.671626E+12
     1392.45  0.926746E+11 0.138398E+13 0.678013E+12
     1392.70  0.939274E+11 0.140101E+13 0.684359E+12
     1392.95  0.951827E+11 0.141804E+13 0.690657E+12
     1393.21  0.964397E+11 0.143506E+13 0.696901E+12
     1393.46  0.976974E+11 0.145204E+13 0.703084E+12
     1393.71  0.989550E+11 0.146897E+13 0.709200E+12
     1393.96  0.100211E+12 0.148585E+13 0.715242E+12
     1394.21  0.101466E+12 0.150266E+13 0.721205E+12
     1394.46  0.102716E+12 0.151937E+13 0.727080E+12
     1394.71  0.103963E+12 0.153598E+13 0.732861E+12
     1394.96  0.105204E+12 0.155247E+13 0.738540E+12
     1395.21  0.106439E+12 0.156882E+13 0.744111E+12
     1395.46  0.107666E+12 0.158501E+13 0.749567E+12
     1395.71  0.108884E+12 0.160104E+13 0.754900E+12
     1395.96  0.110092E+12 0.161688E+13 0.760102E+12
     1396.00  0.110274E+12 0.161925E+13 0.760876E+12
     1396.21  0.111289E+12 0.163251E+13 0.765167E+12
     1396.46  0.112473E+12 0.164792E+13 0.770088E+12
     1396.71  0.113643E+12 0.166309E+13 0.774856E+12
     1396.96  0.114798E+12 0.167799E+13 0.779465E+12
     1397.22  0.115937E+12 0.169263E+13 0.783908E+12
     1397.47  0.117058E+12 0.170696E+13 0.788178E+12
     1397.72  0.118160E+12 0.172099E+13 0.792267E+12
     1397.97  0.119241E+12 0.173468E+13 0.796170E+12
     1398.22  0.120302E+12 0.174803E+13 0.799879E+12
     1398.47  0.121339E+12 0.176101E+13 0.803388E+12
     1398.72  0.122352E+12 0.177361E+13 0.806691E+12
     1398.97  0.123340E+12 0.178581E+13 0.809781E+12
     1399.22  0.124301E+12 0.179760E+13 0.812655E+12
     1399.47  0.125234E+12 0.180895E+13 0.815305E+12
     1399.72  0.126139E+12 0.181986E+13 0.817727E+12
     1399.97  0.127013E+12 0.183031E+13 0.819917E+12
     1400.22  0.127856E+12 0.184028E+13 0.821869E+12
     1400.47  0.128667E+12 0.184976E+13 0.823581E+12
     1400.72  0.129445E+12 0.185874E+13 0.825047E+12
     1400.97  0.130189E+12 0.186721E+13 0.826266E+12
     1401.23  0.130897E+12 0.187515E+13 0.827234E+12
     1401.48  0.131570E+12 0.188256E+13 0.827949E+12
     1401.73  0.132206E+12 0.188943E+13 0.828409E+12
     1401.98  0.132804E+12 0.189574E+13 0.828613E+12
     1402.23  0.133364E+12 0.190149E+13 0.828560E+12
     1402.48  0.133886E+12 0.190667E+13 0.828248E+12
     1402.73  0.134368E+12 0.191129E+13 0.827680E+12
     1402.98  0.134811E+12 0.191532E+13 0.826853E+12
     1403.23  0.135214E+12 0.191878E+13 0.825770E+12
     1403.48  0.135576E+12 0.192166E+13 0.824432E+12
     1403.73  0.135898E+12 0.192395E+13 0.822841E+12
     1403.98  0.136179E+12 0.192566E+13 0.820999E+12
     1404.23  0.136419E+12 0.192678E+13 0.818909E+12
     1404.48  0.136618E+12 0.192733E+13 0.816574E+12
     1404.73  0.136777E+12 0.192730E+13 0.813998E+12
     1404.98  0.136895E+12 0.192669E+13 0.811184E+12
     1405.24  0.136973E+12 0.192552E+13 0.808137E+12
     1405.49  0.137011E+12 0.192378E+13 0.804862E+12
     1405.74  0.137009E+12 0.192149E+13 0.801364E+12
     1405.99  0.136967E+12 0.191866E+13 0.797649E+12
     1406.00  0.136964E+12 0.191850E+13 0.797454E+12
     1406.24  0.136887E+12 0.191528E+13 0.793721E+12
     1406.49  0.136768E+12 0.191138E+13 0.789588E+12
     1406.74  0.136612E+12 0.190695E+13 0.785255E+12
     1406.99  0.136419E+12 0.190202E+13 0.780730E+12
     1407.24  0.136190E+12 0.189659E+13 0.776018E+12
     1407.49  0.135925E+12 0.189068E+13 0.771127E+12
     1407.74  0.135625E+12 0.188430E+13 0.766064E+12
     1407.99  0.135291E+12 0.187746E+13 0.760836E+12
     1408.24  0.134924E+12 0.187018E+13 0.755451E+12
     1408.49  0.134526E+12 0.186247E+13 0.749915E+12
     1408.74  0.134096E+12 0.185434E+13 0.744237E+12
     1408.99  0.133636E+12 0.184582E+13 0.738425E+12
     1409.25  0.133147E+12 0.183691E+13 0.732484E+12
     1409.50  0.132629E+12 0.182763E+13 0.726424E+12
     1409.75  0.132085E+12 0.181800E+13 0.720252E+12
     1410.00  0.131515E+12 0.180803E+13 0.713975E+12
     1410.25  0.130919E+12 0.179774E+13 0.707601E+12
     1410.50  0.130300E+12 0.178715E+13 0.701138E+12
     1410.75  0.129658E+12 0.177626E+13 0.694591E+12
     1411.00  0.128994E+12 0.176510E+13 0.687970E+12
     1411.25  0.128310E+12 0.175369E+13 0.681280E+12
     1411.50  0.127605E+12 0.174203E+13 0.674529E+12
     1411.75  0.126883E+12 0.173014E+13 0.667723E+12
     1412.00  0.126143E+12 0.171804E+13 0.660870E+12
     1412.25  0.125386E+12 0.170575E+13 0.653975E+12
     1412.50  0.124614E+12 0.169327E+13 0.647045E+12
     1412.75  0.123828E+12 0.168062E+13 0.640086E+12
     1413.00  0.123028E+12 0.166782E+13 0.633104E+12
     1413.26  0.122216E+12 0.165488E+13 0.626104E+12
     1413.51  0.121392E+12 0.164181E+13 0.619092E+12
     1413.76  0.120558E+12 0.162862E+13 0.612074E+12
     1414.01  0.119714E+12 0.161534E+13 0.605054E+12
     1414.26  0.118861E+12 0.160197E+13 0.598038E+12
     1414.51  0.118000E+12 0.158852E+13 0.591030E+12
     1414.76  0.117133E+12 0.157500E+13 0.584034E+12
     1415.01  0.116259E+12 0.156143E+13 0.577055E+12
     1415.26  0.115379E+12 0.154782E+13 0.570097E+12
     1415.51  0.114495E+12 0.153417E+13 0.563164E+12
     1415.76  0.113607E+12 0.152050E+13 0.556260E+12
     1416.00  0.112759E+12 0.150749E+13 0.549723E+12
     1416.01  0.112716E+12 0.150682E+13 0.549387E+12
     1416.26  0.111822E+12 0.149313E+13 0.542550E+12
     1416.51  0.110926E+12 0.147945E+13 0.535751E+12
     1416.76  0.110028E+12 0.146578E+13 0.528993E+12
     1417.01  0.109130E+12 0.145212E+13 0.522280E+12
     1417.27  0.108232E+12 0.143850E+13 0.515612E+12
     1417.52  0.107334E+12 0.142491E+13 0.508994E+12
     1417.77  0.106437E+12 0.141137E+13 0.502427E+12
     1418.02  0.105542E+12 0.139787E+13 0.495913E+12
     1418.27  0.104648E+12 0.138443E+13 0.489454E+12
     1418.52  0.103757E+12 0.137104E+13 0.483052E+12
     1418.77  0.102868E+12 0.135773E+13 0.476708E+12
     1419.02  0.101982E+12 0.134448E+13 0.470425E+12
     1419.27  0.101100E+12 0.133131E+13 0.464202E+12
     1419.52  0.100222E+12 0.131822E+13 0.458042E+12
     1419.77  0.993484E+11 0.130521E+13 0.451945E+12
     1420.02  0.984790E+11 0.129229E+13 0.445913E+12
     1420.27  0.976145E+11 0.127947E+13 0.439946E+12
     1420.52  0.967550E+11 0.126673E+13 0.434045E+12
     1420.77  0.959008E+11 0.125410E+13 0.428210E+12
     1421.02  0.950522E+11 0.124157E+13 0.422443E+12
     1421.28  0.942095E+11 0.122914E+13 0.416744E+12
     1421.53  0.933727E+11 0.121681E+13 0.411112E+12
     1421.78  0.925422E+11 0.120460E+13 0.405548E+12
     1422.03  0.917180E+11 0.119249E+13 0.400053E+12
     1422.28  0.909004E+11 0.118049E+13 0.394627E+12
     1422.53  0.900895E+11 0.116861E+13 0.389269E+12
     1422.78  0.892854E+11 0.115685E+13 0.383980E+12
     1423.03  0.884882E+11 0.114520E+13 0.378759E+12
     1423.28  0.876981E+11 0.113366E+13 0.373607E+12
     1423.53  0.869152E+11 0.112225E+13 0.368522E+12
     1423.78  0.861395E+11 0.111095E+13 0.363506E+12
     1424.03  0.853711E+11 0.109977E+13 0.358557E+12
     1424.28  0.846100E+11 0.108871E+13 0.353676E+12
     1424.53  0.838565E+11 0.107777E+13 0.348861E+12
     1424.78  0.831104E+11 0.106695E+13 0.344113E+12
     1425.03  0.823718E+11 0.105625E+13 0.339431E+12
     1425.29  0.816408E+11 0.104567E+13 0.334815E+12
     1425.54  0.809174E+11 0.103522E+13 0.330263E+12
     1425.79  0.802015E+11 0.102488E+13 0.325777E+12
     1426.00  0.795983E+11 0.101617E+13 0.322009E+12
     1426.04  0.794933E+11 0.101466E+13 0.321354E+12
     1426.29  0.787927E+11 0.100456E+13 0.316995E+12
     1426.54  0.780997E+11 0.994580E+12 0.312698E+12
     1426.79  0.774142E+11 0.984719E+12 0.308464E+12
     1427.04  0.767364E+11 0.974975E+12 0.304291E+12
     1427.29  0.760661E+11 0.965349E+12 0.300179E+12
     1427.54  0.754034E+11 0.955840E+12 0.296127E+12
     1427.79  0.747482E+11 0.946446E+12 0.292134E+12
     1428.04  0.741005E+11 0.937168E+12 0.288201E+12
     1428.29  0.734602E+11 0.928004E+12 0.284325E+12
     1428.54  0.728273E+11 0.918954E+12 0.280507E+12
     1428.79  0.722018E+11 0.910016E+12 0.276746E+12
     1429.04  0.715836E+11 0.901191E+12 0.273040E+12
     1429.30  0.709727E+11 0.892475E+12 0.269390E+12
     1429.55  0.703690E+11 0.883870E+12 0.265795E+12
     1429.80  0.697725E+11 0.875373E+12 0.262253E+12
     1430.05  0.691830E+11 0.866984E+12 0.258764E+12
     1430.30  0.686007E+11 0.858702E+12 0.255328E+12
     1430.55  0.680253E+11 0.850525E+12 0.251943E+12
     1430.80  0.674569E+11 0.842452E+12 0.248609E+12
     1431.05  0.668954E+11 0.834483E+12 0.245325E+12
     1431.30  0.663406E+11 0.826617E+12 0.242091E+12
     1431.55  0.657926E+11 0.818851E+12 0.238905E+12
     1431.80  0.652513E+11 0.811185E+12 0.235767E+12
     1432.05  0.647166E+11 0.803618E+12 0.232677E+12
     1432.30  0.641884E+11 0.796148E+12 0.229633E+12
     1432.55  0.636668E+11 0.788776E+12 0.226635E+12
     1432.80  0.631515E+11 0.781498E+12 0.223682E+12
     1433.05  0.626426E+11 0.774314E+12 0.220773E+12
     1433.31  0.621399E+11 0.767224E+12 0.217909E+12
     1433.56  0.616434E+11 0.760225E+12 0.215087E+12
     1433.81  0.611531E+11 0.753317E+12 0.212308E+12
     1434.06  0.606688E+11 0.746499E+12 0.209571E+12
     1434.31  0.601905E+11 0.739769E+12 0.206875E+12
     1434.56  0.597181E+11 0.733126E+12 0.204219E+12
     1434.81  0.592516E+11 0.726569E+12 0.201603E+12
     1435.06  0.587908E+11 0.720097E+12 0.199026E+12
     1435.31  0.583357E+11 0.713708E+12 0.196488E+12
     1435.56  0.578863E+11 0.707403E+12 0.193988E+12
     1435.81  0.574424E+11 0.701179E+12 0.191525E+12
     1436.00  0.571127E+11 0.696557E+12 0.189699E+12
     1436.06  0.570040E+11 0.695035E+12 0.189099E+12
     1436.31  0.565711E+11 0.688970E+12 0.186709E+12
     1436.56  0.561434E+11 0.682984E+12 0.184354E+12
     1436.81  0.557211E+11 0.677075E+12 0.182034E+12
     1437.06  0.553040E+11 0.671242E+12 0.179749E+12
     1437.32  0.548920E+11 0.665484E+12 0.177498E+12
     1437.57  0.544852E+11 0.659800E+12 0.175280E+12
     1437.82  0.540833E+11 0.654188E+12 0.173094E+12
     1438.07  0.536864E+11 0.648649E+12 0.170941E+12
     1438.32  0.532943E+11 0.643180E+12 0.168819E+12
     1438.57  0.529071E+11 0.637781E+12 0.166729E+12
     1438.82  0.525246E+11 0.632451E+12 0.164669E+12
     1439.07  0.521468E+11 0.627189E+12 0.162639E+12
     1439.32  0.517737E+11 0.621994E+12 0.160639E+12
     1439.57  0.514051E+11 0.616864E+12 0.158668E+12
     1439.82  0.510410E+11 0.611800E+12 0.156725E+12
     1440.07  0.506813E+11 0.606799E+12 0.154811E+12
     1440.32  0.503260E+11 0.601862E+12 0.152924E+12
     1440.57  0.499751E+11 0.596987E+12 0.151065E+12
     1440.82  0.496283E+11 0.592173E+12 0.149232E+12
     1441.07  0.492858E+11 0.587419E+12 0.147426E+12
     1441.33  0.489474E+11 0.582725E+12 0.145646E+12
     1441.58  0.486132E+11 0.578089E+12 0.143891E+12
     1441.83  0.482829E+11 0.573511E+12 0.142161E+12
     1442.08  0.479566E+11 0.568990E+12 0.140456E+12
     1442.33  0.476342E+11 0.564525E+12 0.138775E+12
     1442.58  0.473157E+11 0.560115E+12 0.137118E+12
     1442.83  0.470010E+11 0.555760E+12 0.135484E+12
     1443.08  0.466901E+11 0.551458E+12 0.133873E+12
     1443.33  0.463828E+11 0.547209E+12 0.132285E+12
     1443.58  0.460792E+11 0.543013E+12 0.130719E+12
     1443.83  0.457792E+11 0.538867E+12 0.129176E+12
     1444.08  0.454828E+11 0.534772E+12 0.127653E+12
     1444.33  0.451899E+11 0.530727E+12 0.126152E+12
     1444.58  0.449004E+11 0.526731E+12 0.124672E+12
     1444.83  0.446143E+11 0.522783E+12 0.123212E+12
     1445.08  0.443315E+11 0.518883E+12 0.121773E+12
     1445.34  0.440521E+11 0.515030E+12 0.120353E+12
     1445.59  0.437760E+11 0.511223E+12 0.118953E+12
     1445.84  0.435030E+11 0.507462E+12 0.117572E+12
     1446.00  0.433270E+11 0.505038E+12 0.116683E+12
     1446.09  0.432332E+11 0.503746E+12 0.116210E+12
     1446.34  0.429666E+11 0.500074E+12 0.114867E+12
     1446.59  0.427030E+11 0.496446E+12 0.113541E+12
     1446.84  0.424425E+11 0.492860E+12 0.112234E+12
     1447.09  0.421850E+11 0.489317E+12 0.110945E+12
     1447.34  0.419304E+11 0.485816E+12 0.109673E+12
     1447.59  0.416788E+11 0.482356E+12 0.108418E+12
     1447.84  0.414300E+11 0.478936E+12 0.107180E+12
     1448.09  0.411841E+11 0.475556E+12 0.105958E+12
     1448.34  0.409409E+11 0.472216E+12 0.104753E+12
     1448.59  0.407005E+11 0.468914E+12 0.103564E+12
     1448.84  0.404629E+11 0.465651E+12 0.102390E+12
     1449.09  0.402279E+11 0.462426E+12 0.101233E+12
     1449.35  0.399956E+11 0.459237E+12 0.100090E+12
     1449.60  0.397658E+11 0.456085E+12 0.989627E+11
     1449.85  0.395387E+11 0.452970E+12 0.978500E+11
     1450.10  0.393141E+11 0.449890E+12 0.967520E+11
     1450.35  0.390919E+11 0.446845E+12 0.956682E+11
     1450.60  0.388723E+11 0.443834E+12 0.945987E+11
     1450.85  0.386551E+11 0.440858E+12 0.935430E+11
     1451.10  0.384403E+11 0.437915E+12 0.925010E+11
     1456.00  0.346787E+11 0.386486E+12 0.745921E+11
     1466.00  0.290058E+11 0.309179E+12 0.489270E+11
     1476.00  0.251248E+11 0.256221E+12 0.324912E+11
     1486.00  0.223762E+11 0.218377E+12 0.215578E+11
     1496.00  0.203769E+11 0.190359E+12 0.140898E+11
     1506.00  0.188938E+11 0.168990E+12 0.891464E+10
     1516.00  0.177789E+11 0.152278E+12 0.532663E+10
     1526.00  0.169349E+11 0.138922E+12 0.288418E+10
     1536.00  0.162954E+11 0.128047E+12 0.130184E+10
     1546.00  0.158139E+11 0.119042E+12 0.389977E+09
     1556.00  0.154567E+11 0.111473E+12 0.196507E+08
     1566.00  0.151991E+11 0.105024E+12 0.101400E+09
     1576.00  0.150223E+11 0.994574E+11 0.572049E+09
     1586.00  0.149121E+11 0.945946E+11 0.138622E+10
     1596.00  0.148569E+11 0.902977E+11 0.251069E+10
     1606.00  0.148477E+11 0.864587E+11 0.392067E+10
     1616.00  0.148771E+11 0.829921E+11 0.559706E+10
     1626.00  0.149388E+11 0.798297E+11 0.752470E+10
     1636.00  0.150277E+11 0.769163E+11 0.969096E+10
     1646.00  0.151392E+11 0.742070E+11 0.120848E+11
     1656.00  0.152693E+11 0.716650E+11 0.146959E+11
     1666.00  0.154147E+11 0.692603E+11 0.175144E+11
     1676.00  0.155721E+11 0.669678E+11 0.205303E+11
     1686.00  0.157388E+11 0.647672E+11 0.237331E+11
     1696.00  0.159121E+11 0.626414E+11 0.271118E+11
     1706.00  0.160897E+11 0.605769E+11 0.306547E+11
     1716.00  0.162695E+11 0.585623E+11 0.343493E+11
     1726.00  0.164494E+11 0.565889E+11 0.381822E+11
     1736.00  0.166277E+11 0.546496E+11 0.421394E+11
     1746.00  0.168026E+11 0.527389E+11 0.462059E+11
     1756.00  0.169726E+11 0.508529E+11 0.503663E+11
     1766.00  0.171363E+11 0.489888E+11 0.546045E+11
     1776.00  0.172924E+11 0.471448E+11 0.589040E+11
     1786.00  0.174399E+11 0.453201E+11 0.632481E+11
     1796.00  0.175777E+11 0.435145E+11 0.676199E+11
     1806.00  0.177050E+11 0.417284E+11 0.720026E+11
     1816.00  0.178211E+11 0.399630E+11 0.763795E+11
     1826.00  0.179254E+11 0.382195E+11 0.807343E+11
     1836.00  0.180173E+11 0.364996E+11 0.850511E+11
     1846.00  0.180966E+11 0.348053E+11 0.893146E+11
     1856.00  0.181629E+11 0.331384E+11 0.935101E+11
     1866.00  0.182162E+11 0.315011E+11 0.976238E+11
     1876.00  0.182562E+11 0.298955E+11 0.101643E+12
     1886.00  0.182832E+11 0.283236E+11 0.105554E+12
     1896.00  0.182970E+11 0.267876E+11 0.109348E+12
     1906.00  0.182980E+11 0.252893E+11 0.113014E+12
     1916.00  0.182863E+11 0.238305E+11 0.116542E+12
     1926.00  0.182623E+11 0.224128E+11 0.119926E+12
     1936.00  0.182262E+11 0.210377E+11 0.123157E+12
     1946.00  0.181785E+11 0.197065E+11 0.126229E+12
     1956.00  0.181195E+11 0.184202E+11 0.129138E+12
     1966.00  0.180497E+11 0.171798E+11 0.131880E+12
     1976.00  0.179695E+11 0.159859E+11 0.134451E+12
     1986.00  0.178793E+11 0.148391E+11 0.136849E+12
     1996.00  0.177798E+11 0.137398E+11 0.139072E+12
     2006.00  0.176712E+11 0.126882E+11 0.141120E+12
     2016.00  0.175542E+11 0.116842E+11 0.142993E+12
     2026.00  0.174293E+11 0.107278E+11 0.144690E+12
     2036.00  0.172968E+11 0.981874E+10 0.146214E+12
     2046.00  0.171573E+11 0.895657E+10 0.147566E+12
     2056.00  0.170113E+11 0.814079E+10 0.148748E+12
     2066.00  0.168591E+11 0.737078E+10 0.149762E+12
     2076.00  0.167013E+11 0.664582E+10 0.150612E+12
     2086.00  0.165382E+11 0.596511E+10 0.151301E+12
     2096.00  0.163702E+11 0.532777E+10 0.151832E+12
     2106.00  0.161978E+11 0.473286E+10 0.152210E+12
     2116.00  0.160213E+11 0.417936E+10 0.152438E+12
     2126.00  0.158411E+11 0.366624E+10 0.152521E+12
     2136.00  0.156576E+11 0.319239E+10 0.152464E+12
     2146.00  0.154709E+11 0.275670E+10 0.152270E+12
     2156.00  0.152816E+11 0.235801E+10 0.151944E+12
     2166.00  0.150898E+11 0.199516E+10 0.151491E+12
     2176.00  0.148959E+11 0.166696E+10 0.150916E+12
     2186.00  0.147001E+11 0.137223E+10 0.150223E+12
     2196.00  0.145026E+11 0.110976E+10 0.149418E+12
     2206.00  0.143037E+11 0.878359E+09 0.148504E+12
     2216.00  0.141037E+11 0.676841E+09 0.147488E+12
     2226.00  0.139027E+11 0.504019E+09 0.146373E+12
     2236.00  0.137010E+11 0.358719E+09 0.145165E+12
     2246.00  0.134986E+11 0.239778E+09 0.143867E+12
     2256.00  0.132959E+11 0.146049E+09 0.142485E+12
     2266.00  0.130930E+11 0.764016E+08 0.141024E+12
     2276.00  0.128900E+11 0.297231E+08 0.139487E+12
     2286.00  0.126871E+11 0.492065E+07 0.137879E+12
     2296.00  0.124845E+11 0.922058E+06 0.136205E+12
     2306.00  0.122822E+11 0.166770E+08 0.134468E+12
     2316.00  0.120804E+11 0.511578E+08 0.132674E+12
     2326.00  0.118792E+11 0.103360E+09 0.130825E+12
     2336.00  0.116787E+11 0.172303E+09 0.128926E+12
     2346.00  0.114791E+11 0.257031E+09 0.126982E+12
     2356.00  0.112804E+11 0.356612E+09 0.124994E+12
     2366.00  0.110827E+11 0.470139E+09 0.122969E+12
     2376.00  0.108862E+11 0.596731E+09 0.120908E+12
     2386.00  0.106908E+11 0.735529E+09 0.118816E+12
     2396.00  0.104967E+11 0.885701E+09 0.116696E+12
     2406.00  0.103039E+11 0.104644E+10 0.114551E+12
     2416.00  0.101126E+11 0.121696E+10 0.112385E+12
     2426.00  0.992272E+10 0.139651E+10 0.110199E+12
     2436.00  0.973438E+10 0.158436E+10 0.107999E+12
     2446.00  0.954763E+10 0.177978E+10 0.105786E+12
     2456.00  0.936252E+10 0.198210E+10 0.103563E+12
     2466.00  0.917909E+10 0.219065E+10 0.101333E+12
     2476.00  0.899740E+10 0.240480E+10 0.990989E+11
     2486.00  0.881748E+10 0.262392E+10 0.968626E+11
     2496.00  0.863938E+10 0.284742E+10 0.946267E+11
     2506.00  0.846313E+10 0.307473E+10 0.923935E+11
     2516.00  0.828876E+10 0.330529E+10 0.901653E+11
     2526.00  0.811631E+10 0.353858E+10 0.879442E+11
     2536.00  0.794580E+10 0.377409E+10 0.857323E+11
     2546.00  0.777726E+10 0.401132E+10 0.835315E+11
     2556.00  0.761072E+10 0.424982E+10 0.813437E+11
     2566.00  0.744620E+10 0.448913E+10 0.791706E+11
     2576.00  0.728371E+10 0.472883E+10 0.770140E+11
     2586.00  0.712329E+10 0.496849E+10 0.748754E+11
     2596.00  0.696494E+10 0.520774E+10 0.727565E+11
     2606.00  0.680867E+10 0.544619E+10 0.706585E+11
     2616.00  0.665451E+10 0.568350E+10 0.685829E+11
     2626.00  0.650245E+10 0.591931E+10 0.665310E+11
     2636.00  0.635252E+10 0.615331E+10 0.645039E+11
     2646.00  0.620472E+10 0.638520E+10 0.625029E+11
     2656.00  0.605906E+10 0.661469E+10 0.605290E+11
     2666.00  0.591554E+10 0.684149E+10 0.585831E+11
     2676.00  0.577416E+10 0.706536E+10 0.566662E+11
     2686.00  0.563494E+10 0.728605E+10 0.547792E+11
     2696.00  0.549786E+10 0.750332E+10 0.529228E+11
     2706.00  0.536293E+10 0.771697E+10 0.510978E+11
     2716.00  0.523015E+10 0.792680E+10 0.493048E+11
     2726.00  0.509951E+10 0.813260E+10 0.475443E+11
     2736.00  0.497102E+10 0.833421E+10 0.458170E+11
     2746.00  0.484465E+10 0.853147E+10 0.441233E+11
     2756.00  0.472042E+10 0.872421E+10 0.424637E+11
     2766.00  0.459830E+10 0.891231E+10 0.408384E+11
     2776.00  0.447831E+10 0.909564E+10 0.392479E+11
     2786.00  0.436041E+10 0.927407E+10 0.376924E+11
     2796.00  0.424462E+10 0.944750E+10 0.361720E+11
     2806.00  0.413091E+10 0.961584E+10 0.346871E+11
     2816.00  0.401927E+10 0.977899E+10 0.332377E+11
     2826.00  0.390969E+10 0.993689E+10 0.318238E+11
     2836.00  0.380216E+10 0.100895E+11 0.304456E+11
     2846.00  0.369667E+10 0.102366E+11 0.291030E+11
     2856.00  0.359320E+10 0.103784E+11 0.277960E+11
     2866.00  0.349173E+10 0.105146E+11 0.265245E+11
     2876.00  0.339225E+10 0.106454E+11 0.252885E+11
     2886.00  0.329475E+10 0.107706E+11 0.240876E+11
     2896.00  0.319921E+10 0.108903E+11 0.229219E+11
     2906.00  0.310560E+10 0.110044E+11 0.217910E+11
     2916.00  0.301392E+10 0.111129E+11 0.206948E+11
     2926.00  0.292415E+10 0.112159E+11 0.196330E+11
     2936.00  0.283627E+10 0.113133E+11 0.186052E+11
     2946.00  0.275025E+10 0.114051E+11 0.176112E+11
     2956.00  0.266608E+10 0.114915E+11 0.166507E+11
     2966.00  0.258374E+10 0.115723E+11 0.157232E+11
     2976.00  0.250321E+10 0.116476E+11 0.148284E+11
     2986.00  0.242447E+10 0.117176E+11 0.139658E+11
     2996.00  0.234749E+10 0.117821E+11 0.131351E+11
     3006.00  0.227227E+10 0.118413E+11 0.123359E+11
     3016.00  0.219877E+10 0.118952E+11 0.115676E+11
     3026.00  0.212697E+10 0.119439E+11 0.108298E+11
     3036.00  0.205686E+10 0.119873E+11 0.101220E+11
     3046.00  0.198841E+10 0.120257E+11 0.944366E+10
     3056.00  0.192160E+10 0.120589E+11 0.879436E+10
     3066.00  0.185641E+10 0.120872E+11 0.817355E+10
     3076.00  0.179281E+10 0.121106E+11 0.758068E+10
     3086.00  0.173078E+10 0.121291E+11 0.701523E+10
     3096.00  0.167030E+10 0.121428E+11 0.647664E+10
     3106.00  0.161135E+10 0.121519E+11 0.596437E+10
     3116.00  0.155391E+10 0.121563E+11 0.547785E+10
     3126.00  0.149794E+10 0.121562E+11 0.501653E+10
     3136.00  0.144344E+10 0.121516E+11 0.457983E+10
     3146.00  0.139037E+10 0.121426E+11 0.416718E+10
     3156.00  0.133871E+10 0.121294E+11 0.377802E+10
     3166.00  0.128844E+10 0.121120E+11 0.341176E+10
     3176.00  0.123954E+10 0.120905E+11 0.306783E+10
     3186.00  0.119199E+10 0.120649E+11 0.274565E+10
     3196.00  0.114575E+10 0.120355E+11 0.244465E+10
     3206.00  0.110082E+10 0.120022E+11 0.216424E+10
     3216.00  0.105716E+10 0.119652E+11 0.190386E+10
     3226.00  0.101475E+10 0.119245E+11 0.166292E+10
     3236.00  0.973575E+09 0.118803E+11 0.144087E+10
     3246.00  0.933608E+09 0.118327E+11 0.123712E+10
     3256.00  0.894827E+09 0.117817E+11 0.105112E+10
     3266.00  0.857210E+09 0.117274E+11 0.882308E+09
     3276.00  0.820735E+09 0.116700E+11 0.730124E+09
     3286.00  0.785380E+09 0.116095E+11 0.594018E+09
     3296.00  0.751122E+09 0.115461E+11 0.473444E+09
     3306.00  0.717942E+09 0.114797E+11 0.367860E+09
     3316.00  0.685816E+09 0.114106E+11 0.276733E+09
     3326.00  0.654724E+09 0.113388E+11 0.199532E+09
     3336.00  0.624644E+09 0.112644E+11 0.135736E+09
     3346.00  0.595556E+09 0.111875E+11 0.848298E+08
     3356.00  0.567438E+09 0.111082E+11 0.463042E+08
     3366.00  0.540270E+09 0.110266E+11 0.196587E+08
     3376.00  0.514031E+09 0.109428E+11 0.439972E+07
     3386.00  0.488701E+09 0.108568E+11 0.416586E+05
     3396.00  0.464260E+09 0.107688E+11 0.610684E+07
     3406.00  0.440689E+09 0.106789E+11 0.221257E+08
     3416.00  0.417966E+09 0.105871E+11 0.476372E+08
     3426.00  0.396075E+09 0.104935E+11 0.821884E+08
     3436.00  0.374994E+09 0.103982E+11 0.125335E+09
     3446.00  0.354704E+09 0.103013E+11 0.176643E+09
     3456.00  0.335188E+09 0.102029E+11 0.235684E+09
     3466.00  0.316427E+09 0.101031E+11 0.302041E+09
     3476.00  0.298402E+09 0.100019E+11 0.375305E+09
     3486.00  0.281095E+09 0.989940E+10 0.455078E+09
     3496.00  0.264489E+09 0.979573E+10 0.540967E+09
     3506.00  0.248565E+09 0.969094E+10 0.632593E+09
     3516.00  0.233307E+09 0.958511E+10 0.729581E+09
     3526.00  0.218697E+09 0.947831E+10 0.831570E+09
     3536.00  0.204719E+09 0.937061E+10 0.938206E+09
     3546.00  0.191356E+09 0.926209E+10 0.104914E+10
     3556.00  0.178591E+09 0.915282E+10 0.116405E+10
     3566.00  0.166409E+09 0.904287E+10 0.128259E+10
     3576.00  0.154794E+09 0.893230E+10 0.140446E+10
     3586.00  0.143729E+09 0.882120E+10 0.152934E+10
     3596.00  0.133200E+09 0.870961E+10 0.165693E+10
     3606.00  0.123192E+09 0.859760E+10 0.178695E+10
     3616.00  0.113689E+09 0.848524E+10 0.191912E+10
     3626.00  0.104678E+09 0.837259E+10 0.205315E+10
     3636.00  0.961428E+08 0.825971E+10 0.218880E+10
     3646.00  0.880704E+08 0.814665E+10 0.232579E+10
     3656.00  0.804467E+08 0.803347E+10 0.246389E+10
     3666.00  0.732581E+08 0.792023E+10 0.260286E+10
     3676.00  0.664911E+08 0.780698E+10 0.274247E+10
     3686.00  0.601327E+08 0.769378E+10 0.288250E+10
     3696.00  0.541700E+08 0.758068E+10 0.302273E+10
     3706.00  0.485903E+08 0.746772E+10 0.316296E+10
     3716.00  0.433813E+08 0.735495E+10 0.330299E+10
     3726.00  0.385307E+08 0.724243E+10 0.344264E+10
     3736.00  0.340266E+08 0.713019E+10 0.358172E+10
     3746.00  0.298574E+08 0.701829E+10 0.372006E+10
     3756.00  0.260116E+08 0.690675E+10 0.385749E+10
     3766.00  0.224780E+08 0.679564E+10 0.399385E+10
     3776.00  0.192456E+08 0.668497E+10 0.412900E+10
     3786.00  0.163037E+08 0.657480E+10 0.426279E+10
     3796.00  0.136417E+08 0.646516E+10 0.439507E+10
     3806.00  0.112493E+08 0.635609E+10 0.452573E+10
     3816.00  0.911649E+07 0.624761E+10 0.465463E+10
     3826.00  0.723339E+07 0.613978E+10 0.478166E+10
     3836.00  0.559038E+07 0.603261E+10 0.490671E+10
     3846.00  0.417805E+07 0.592613E+10 0.502966E+10
     3856.00  0.298719E+07 0.582038E+10 0.515044E+10
     3866.00  0.200883E+07 0.571539E+10 0.526893E+10
     3876.00  0.123420E+07 0.561119E+10 0.538506E+10
     3886.00  0.654734E+06 0.550779E+10 0.549874E+10
     3896.00  0.262072E+06 0.540522E+10 0.560989E+10
     3906.00  0.480636E+05 0.530351E+10 0.571846E+10
     3916.00  0.475595E+04 0.520268E+10 0.582436E+10
     3926.00  0.124395E+06 0.510275E+10 0.592755E+10
     3936.00  0.399421E+06 0.500375E+10 0.602796E+10
     3946.00  0.822469E+06 0.490568E+10 0.612555E+10
     3956.00  0.138636E+07 0.480857E+10 0.622027E+10
     3966.00  0.208412E+07 0.471244E+10 0.631208E+10
     3976.00  0.290892E+07 0.461730E+10 0.640095E+10
     3986.00  0.385417E+07 0.452317E+10 0.648684E+10
     3996.00  0.491341E+07 0.443006E+10 0.656972E+10
     4006.00  0.608038E+07 0.433799E+10 0.664958E+10
     4016.00  0.734898E+07 0.424696E+10 0.672639E+10
     4026.00  0.871332E+07 0.415700E+10 0.680014E+10
     4036.00  0.101676E+08 0.406810E+10 0.687081E+10
     4046.00  0.117063E+08 0.398029E+10 0.693839E+10
     4056.00  0.133240E+08 0.389356E+10 0.700289E+10
     4066.00  0.150153E+08 0.380793E+10 0.706429E+10
     4076.00  0.167753E+08 0.372340E+10 0.712260E+10
     4086.00  0.185990E+08 0.363999E+10 0.717782E+10
     4096.00  0.204815E+08 0.355769E+10 0.722997E+10
     4106.00  0.224182E+08 0.347651E+10 0.727904E+10
     4116.00  0.244046E+08 0.339646E+10 0.732505E+10
     4126.00  0.264364E+08 0.331753E+10 0.736803E+10
     4136.00  0.285094E+08 0.323974E+10 0.740798E+10
     4146.00  0.306194E+08 0.316309E+10 0.744492E+10
     4156.00  0.327626E+08 0.308756E+10 0.747888E+10
     4166.00  0.349351E+08 0.301318E+10 0.750988E+10
     4176.00  0.371333E+08 0.293993E+10 0.753796E+10
     4186.00  0.393536E+08 0.286782E+10 0.756313E+10
     4196.00  0.415926E+08 0.279685E+10 0.758542E+10
     4206.00  0.438470E+08 0.272700E+10 0.760488E+10
     4216.00  0.461136E+08 0.265830E+10 0.762152E+10
     4226.00  0.483894E+08 0.259071E+10 0.763540E+10
     4236.00  0.506715E+08 0.252426E+10 0.764654E+10
     4246.00  0.529569E+08 0.245893E+10 0.765498E+10
     4256.00  0.552430E+08 0.239472E+10 0.766076E+10
     4266.00  0.575272E+08 0.233162E+10 0.766392E+10
     4276.00  0.598069E+08 0.226963E+10 0.766450E+10
     4286.00  0.620798E+08 0.220875E+10 0.766256E+10
     4296.00  0.643435E+08 0.214896E+10 0.765812E+10
     4306.00  0.665959E+08 0.209027E+10 0.765123E+10
     4316.00  0.688348E+08 0.203266E+10 0.764195E+10
     4326.00  0.710583E+08 0.197613E+10 0.763032E+10
     4336.00  0.732644E+08 0.192067E+10 0.761637E+10
     4346.00  0.754513E+08 0.186628E+10 0.760017E+10
     4356.00  0.776172E+08 0.181294E+10 0.758176E+10
     4366.00  0.797605E+08 0.176065E+10 0.756118E+10
     4376.00  0.818795E+08 0.170940E+10 0.753849E+10
     4386.00  0.839729E+08 0.165919E+10 0.751373E+10
     4396.00  0.860392E+08 0.160999E+10 0.748696E+10
     4406.00  0.880769E+08 0.156181E+10 0.745823E+10
     4416.00  0.900850E+08 0.151463E+10 0.742758E+10
     4426.00  0.920622E+08 0.146844E+10 0.739507E+10
     4436.00  0.940073E+08 0.142324E+10 0.736074E+10
     4446.00  0.959193E+08 0.137901E+10 0.732466E+10
     4456.00  0.977972E+08 0.133575E+10 0.728686E+10
     4466.00  0.996402E+08 0.129344E+10 0.724740E+10
     4476.00  0.101447E+09 0.125207E+10 0.720633E+10
     4486.00  0.103218E+09 0.121163E+10 0.716370E+10
     4511.00  0.107479E+09 0.111454E+10 0.705064E+10
     4536.00  0.111496E+09 0.102304E+10 0.692892E+10
     4561.00  0.115262E+09 0.936940E+09 0.679931E+10
     4586.00  0.118770E+09 0.856065E+09 0.666257E+10
     4611.00  0.122017E+09 0.780231E+09 0.651945E+10
     4636.00  0.125000E+09 0.709254E+09 0.637066E+10
     4661.00  0.127717E+09 0.642948E+09 0.621690E+10
     4686.00  0.130169E+09 0.581127E+09 0.605885E+10
     4711.00  0.132357E+09 0.523605E+09 0.589716E+10
     4736.00  0.134284E+09 0.470200E+09 0.573246E+10
     4761.00  0.135954E+09 0.420729E+09 0.556534E+10
     4786.00  0.137371E+09 0.375011E+09 0.539639E+10
     4811.00  0.138540E+09 0.332869E+09 0.522614E+10
     4836.00  0.139468E+09 0.294127E+09 0.505511E+10
     4861.00  0.140160E+09 0.258615E+09 0.488380E+10
     4886.00  0.140624E+09 0.226164E+09 0.471266E+10
     4911.00  0.140869E+09 0.196609E+09 0.454213E+10
     4936.00  0.140900E+09 0.169792E+09 0.437260E+10
     4961.00  0.140728E+09 0.145556E+09 0.420445E+10
     4986.00  0.140360E+09 0.123751E+09 0.403804E+10
     5011.00  0.139806E+09 0.104228E+09 0.387368E+10
     5036.00  0.139074E+09 0.868462E+08 0.371167E+10
     5061.00  0.138173E+09 0.714686E+08 0.355227E+10
     5086.00  0.137112E+09 0.579627E+08 0.339574E+10
     5111.00  0.135901E+09 0.462011E+08 0.324227E+10
     5136.00  0.134548E+09 0.360614E+08 0.309209E+10
     5161.00  0.133063E+09 0.274260E+08 0.294535E+10
     5186.00  0.131454E+09 0.201824E+08 0.280221E+10
     5211.00  0.129730E+09 0.142228E+08 0.266280E+10
     5236.00  0.127900E+09 0.944457E+07 0.252724E+10
     5261.00  0.125972E+09 0.574962E+07 0.239560E+10
     5286.00  0.123954E+09 0.304471E+07 0.226798E+10
     5311.00  0.121855E+09 0.124122E+07 0.214443E+10
     5336.00  0.119682E+09 0.255107E+06 0.202499E+10
     5361.00  0.117444E+09 0.680269E+04 0.190968E+10
     5386.00  0.115146E+09 0.421097E+06 0.179853E+10
     5411.00  0.112798E+09 0.142704E+07 0.169153E+10
     5436.00  0.110405E+09 0.295781E+07 0.158868E+10
     5461.00  0.107974E+09 0.495063E+07 0.148994E+10
     5511.00  0.103023E+09 0.100906E+08 0.130469E+10
     5561.00  0.979936E+08 0.164202E+08 0.113539E+10
     5611.00  0.929287E+08 0.235689E+08 0.981556E+09
     5661.00  0.878671E+08 0.312179E+08 0.842572E+09
     5711.00  0.828437E+08 0.390964E+08 0.717753E+09
     5761.00  0.778888E+08 0.469766E+08 0.606346E+09
     5811.00  0.730293E+08 0.546706E+08 0.507558E+09
     5861.00  0.682879E+08 0.620257E+08 0.420563E+09
     5911.00  0.636841E+08 0.689211E+08 0.344522E+09
     5961.00  0.592340E+08 0.752640E+08 0.278594E+09
     6011.00  0.549507E+08 0.809867E+08 0.221945E+09
     6061.00  0.508442E+08 0.860429E+08 0.173755E+09
     6111.00  0.469223E+08 0.904050E+08 0.133232E+09
     6161.00  0.431901E+08 0.940615E+08 0.996100E+08
     6211.00  0.396508E+08 0.970144E+08 0.721603E+08
     6261.00  0.363058E+08 0.992771E+08 0.501909E+08
     6311.00  0.331545E+08 0.100872E+09 0.330509E+08
     6361.00  0.301953E+08 0.101829E+09 0.201320E+08
     6411.00  0.274250E+08 0.102185E+09 0.108693E+08
     6461.00  0.248395E+08 0.101979E+09 0.474131E+07
     6511.00  0.224336E+08 0.101255E+09 0.127025E+07
     6561.00  0.202016E+08 0.100058E+09 0.207127E+05
     6611.00  0.181370E+08 0.984336E+08 0.598724E+06
     6661.00  0.162330E+08 0.964296E+08 0.265015E+07
     6711.00  0.144822E+08 0.940912E+08 0.585894E+07
     6761.00  0.128770E+08 0.914637E+08 0.994511E+07
     6811.00  0.114100E+08 0.885903E+08 0.146627E+08
     6861.00  0.100731E+08 0.855127E+08 0.197973E+08
     6911.00  0.885887E+07 0.822702E+08 0.251643E+08
     6961.00  0.775943E+07 0.788997E+08 0.306061E+08
     7011.00  0.676728E+07 0.754359E+08 0.359902E+08
     7061.00  0.587500E+07 0.719103E+08 0.412065E+08
     7111.00  0.507542E+07 0.683521E+08 0.461658E+08
     7161.00  0.436157E+07 0.647878E+08 0.507972E+08
     7211.00  0.372677E+07 0.612409E+08 0.550464E+08
     7261.00  0.316462E+07 0.577328E+08 0.588735E+08
     7311.00  0.266901E+07 0.542818E+08 0.622516E+08
     7361.00  0.223414E+07 0.509044E+08 0.651649E+08
     7411.00  0.185455E+07 0.476144E+08 0.676072E+08
     7511.00  0.124085E+07 0.413416E+08 0.710938E+08
     7611.00  0.790457E+06 0.355342E+08 0.728034E+08
     7711.00  0.470812E+06 0.302352E+08 0.729028E+08
     7811.00  0.254052E+06 0.254643E+08 0.716044E+08
     7911.00  0.116639E+06 0.212227E+08 0.691427E+08
     8011.00  0.389738E+05 0.174966E+08 0.657570E+08
     8111.00  0.497004E+04 0.142616E+08 0.616786E+08
     8211.00  0.163549E+04 0.114852E+08 0.571215E+08
     8311.00  0.186572E+05 0.912998E+07 0.522771E+08
     8411.00  0.480110E+05 0.715560E+07 0.473109E+08
     8511.00  0.835995E+05 0.552082E+07 0.423613E+08
     8611.00  0.120923E+06 0.418481E+07 0.375404E+08
     8711.00  0.156789E+06 0.310831E+07 0.329352E+08
     8811.00  0.189052E+06 0.225433E+07 0.286100E+08
     8911.00  0.216393E+06 0.158874E+07 0.246086E+08
     9011.00  0.238129E+06 0.108055E+07 0.209576E+08
     9111.00  0.254056E+06 0.702051E+06 0.176687E+08
     9211.00  0.264317E+06 0.428824E+06 0.147419E+08
     9311.00  0.269293E+06 0.239650E+06 0.121675E+08
     9411.00  0.269521E+06 0.116334E+06 0.992910E+07
     9511.00  0.265624E+06 0.434864E+05 0.800481E+07
     9611.00  0.258264E+06 0.827497E+04 0.636954E+07
     9711.00  0.248099E+06 0.158112E+03 0.499624E+07
     9811.00  0.235757E+06 0.106166E+05 0.385711E+07
     9911.00  0.221822E+06 0.328908E+05 0.292459E+07
    10011.00  0.206818E+06 0.617301E+05 0.217201E+07
    10111.00  0.191203E+06 0.931610E+05 0.157420E+07
    10211.00  0.175370E+06 0.124273E+06 0.110779E+07
    10311.00  0.159647E+06 0.153031E+06 0.751480E+06
    10411.00  0.144299E+06 0.178099E+06 0.486141E+06
    10511.00  0.129535E+06 0.198703E+06 0.294840E+06
    10611.00  0.115512E+06 0.214496E+06 0.162797E+06
    10711.00  0.102343E+06 0.225455E+06 0.772846E+05
    10811.00  0.901008E+05 0.231793E+06 0.274946E+05
    10911.00  0.788249E+05 0.233882E+06 0.437760E+04
    11011.00  0.685284E+05 0.232196E+06 0.471901E+03
    11111.00  0.592019E+05 0.227266E+06 0.972545E+04
    11211.00  0.508184E+05 0.219638E+06 0.273199E+05
    11311.00  0.433379E+05 0.209855E+06 0.495010E+05
    11411.00  0.367107E+05 0.198429E+06 0.734192E+05
    11511.00  0.308805E+05 0.185833E+06 0.969828E+05
    11611.00  0.257868E+05 0.172491E+06 0.118724E+06
    11711.00  0.213676E+05 0.158773E+06 0.137682E+06
    11811.00  0.175605E+05 0.144995E+06 0.153295E+06
    11911.00  0.143043E+05 0.131419E+06 0.165315E+06
    12011.00  0.115402E+05 0.118257E+06 0.173729E+06
    12111.00  0.921216E+04 0.105673E+06 0.178692E+06
    12211.00  0.726775E+04 0.937892E+05 0.180479E+06
    12311.00  0.565833E+04 0.826908E+05 0.179440E+06
    12411.00  0.433924E+04 0.724303E+05 0.175962E+06
    12511.00  0.326989E+04 0.630327E+05 0.170450E+06
    12611.00  0.241365E+04 0.545007E+05 0.163302E+06
    12711.00  0.173778E+04 0.468186E+05 0.154897E+06
    12811.00  0.121322E+04 0.399562E+05 0.145583E+06
    12911.00  0.814364E+03 0.338729E+05 0.135673E+06
    13011.00  0.518838E+03 0.285203E+05 0.125441E+06
    13111.00  0.307235E+03 0.238449E+05 0.115121E+06
    13211.00  0.162855E+03 0.197906E+05 0.104910E+06
    13311.00  0.714408E+02 0.163003E+05 0.949650E+05
    13411.00  0.209326E+02 0.133174E+05 0.854111E+05
    13511.00  0.122197E+01 0.107870E+05 0.763416E+05
    13611.00  0.392607E+01 0.865694E+04 0.678229E+05
    13711.00  0.221752E+02 0.687800E+04 0.598980E+05
    13811.00  0.504165E+02 0.540460E+04 0.525899E+05
    13911.00  0.842346E+02 0.419503E+04 0.459049E+05
    14011.00  0.120188E+03 0.321143E+04 0.398364E+05
    14111.00  0.155664E+03 0.241984E+04 0.343668E+05
    14211.00  0.188746E+03 0.179008E+04 0.294708E+05
    14311.00  0.218094E+03 0.129555E+04 0.251171E+05
    14411.00  0.242849E+03 0.913014E+03 0.212705E+05
    14511.00  0.262534E+03 0.622364E+03 0.178936E+05
    14611.00  0.276982E+03 0.406331E+03 0.149477E+05
    14711.00  0.286264E+03 0.250214E+03 0.123941E+05
    14811.00  0.290632E+03 0.141609E+03 0.101949E+05
    14911.00  0.290469E+03 0.701373E+02 0.831343E+04
    15011.00  0.286250E+03 0.271994E+02 0.671507E+04
    15111.00  0.278503E+03 0.573572E+01 0.536718E+04
    15211.00  0.267783E+03 0.124937E-01 0.423948E+04
    15311.00  0.254649E+03 0.542513E+01 0.330409E+04
    15411.00  0.239645E+03 0.183226E+02 0.253557E+04
    15511.00  0.223287E+03 0.358513E+02 0.191090E+04
    15611.00  0.206052E+03 0.558188E+02 0.140935E+04
    15711.00  0.188371E+03 0.765749E+02 0.101242E+04
    15811.00  0.170626E+03 0.969093E+02 0.703687E+03
    15911.00  0.153143E+03 0.115965E+03 0.468646E+03
    16011.00  0.136200E+03 0.133166E+03 0.294589E+03
    16111.00  0.120019E+03 0.148153E+03 0.170431E+03
    16211.00  0.104774E+03 0.160737E+03 0.865704E+02
    16311.00  0.905928E+02 0.170855E+03 0.347428E+02
    16411.00  0.775617E+02 0.178538E+03 0.788344E+01
    16511.00  0.657278E+02 0.183883E+03 0.785925E-03
    16611.00  0.551061E+02 0.187034E+03 0.605655E+01
    16711.00  0.456827E+02 0.188163E+03 0.218564E+02
    16811.00  0.374202E+02 0.187460E+03 0.439492E+02
    16911.00  0.302623E+02 0.185122E+03 0.695362E+02
    17011.00  0.241382E+02 0.181347E+03 0.963867E+02
    17111.00  0.189665E+02 0.176328E+03 0.122764E+03
    17211.00  0.146590E+02 0.170252E+03 0.147357E+03
    17311.00  0.111241E+02 0.163295E+03 0.169217E+03
    17411.00  0.826946E+01 0.155623E+03 0.187708E+03
    17511.00  0.600465E+01 0.147389E+03 0.202449E+03
    17611.00  0.424299E+01 0.138735E+03 0.213275E+03
    17711.00  0.290317E+01 0.129794E+03 0.220198E+03
    17811.00  0.191045E+01 0.120683E+03 0.223364E+03
    17911.00  0.119740E+01 0.111513E+03 0.223030E+03
    18011.00  0.704417E+00 0.102381E+03 0.219529E+03
    18111.00  0.379841E+00 0.933754E+02 0.213249E+03
    18211.00  0.179894E+00 0.845752E+02 0.204611E+03
    18311.00  0.683504E-01 0.760498E+02 0.194047E+03
    18411.00  0.160612E-01 0.678597E+02 0.181991E+03
    18511.00  0.339269E-03 0.600571E+02 0.168859E+03
    18611.00  0.425182E-02 0.526852E+02 0.155044E+03
    18711.00  0.158583E-01 0.457792E+02 0.140903E+03
    18811.00  0.274243E-01 0.393663E+02 0.126757E+03
    18911.00  0.346412E-01 0.334658E+02 0.112883E+03
    19011.00  0.358760E-01 0.280895E+02 0.995116E+02
    19111.00  0.314717E-01 0.232419E+02 0.868318E+02
    19311.00  0.132718E-01 0.151164E+02 0.640766E+02
    19511.00  0.214416E-03 0.899432E+01 0.452835E+02
    19711.00  0.120788E-01 0.469270E+01 0.305704E+02
    19911.00  0.601082E-01 0.196122E+01 0.196499E+02
    20111.00  0.143863E+00 0.505289E+00 0.119791E+02
    20311.00  0.252040E+00 0.110129E-01 0.689768E+01
    20511.00  0.365958E+00 0.169577E+00 0.373915E+01
    20711.00  0.464343E+00 0.699092E+00 0.190860E+01
    20911.00  0.528208E+00 0.136197E+01 0.926425E+00
    21111.00  0.544857E+00 0.197647E+01 0.441735E+00
    21311.00  0.510402E+00 0.242172E+01 0.223087E+00
    21511.00  0.430529E+00 0.263622E+01 0.135146E+00
    21711.00  0.319558E+00 0.261080E+01 0.109788E+00
    21911.00  0.198119E+00 0.237717E+01 0.118420E+00
    22111.00  0.899122E-01 0.199407E+01 0.150072E+00
    22311.00  0.181232E-01 0.153287E+01 0.197308E+00
    22511.00  0.201930E-02 0.106420E+01 0.249833E+00
    22711.00  0.542101E-01 0.647472E+00 0.294134E+00
    22911.00  0.178888E+00 0.323751E+00 0.316695E+00
    23111.00  0.371225E+00 0.112696E+00 0.308278E+00
    23311.00  0.617935E+00 0.132059E-01 0.267229E+00
    23511.00  0.898856E+00 0.714031E-02 0.200620E+00
    23711.00  0.118932E+01 0.651148E-01 0.122930E+00
    23911.00  0.146293E+01 0.153194E+00 0.527187E-01
    24111.00  0.169452E+01 0.239351E+00 0.827762E-02
    24311.00  0.186279E+01 0.298718E+00 0.337934E-02
    24511.00  0.195248E+01 0.316972E+00 0.441451E-01
    24711.00  0.195582E+01 0.291541E+00 0.127677E+00
    24911.00  0.187314E+01 0.230677E+00 0.242658E+00
    25111.00  0.171263E+01 0.150784E+00 0.371660E+00
    25311.00  0.148936E+01 0.725899E-01 0.494582E+00
    25511.00  0.122364E+01 0.168825E-01 0.592431E+00
    25711.00  0.938968E+00 0.541275E-03 0.650675E+00
    25911.00  0.659830E+00 0.334690E-01 0.661575E+00
    26111.00  0.409420E+00 0.116857E+00 0.625098E+00
    26311.00  0.207689E+00 0.242979E+00 0.548410E+00
    26511.00  0.697439E-01 0.396456E+00 0.444128E+00
    26711.00  0.478326E-02 0.556737E+00 0.327811E+00
    26911.00  0.156031E-01 0.701344E+00 0.215160E+00



